frame	time(s)	intensity	F1(Hz)	B1(Hz)	F2(Hz)	B2(Hz)	F3(Hz)	B3(Hz)
1	0.001	0.0000006	1361.407	791.508	2777.420	1579.926	4912.273	1190.375
2	0.002	0.0000006	987.207	1280.028	2726.213	928.561	5146.554	1081.510
3	0.003	0.0000006	1311.887	1096.612	2575.643	747.652	5033.020	581.633
4	0.004	0.0000006	1140.196	799.254	3222.026	1765.687	4905.141	645.551
5	0.005	0.0000006	1332.164	946.106	2293.494	1544.470	--undefined--	--undefined--
6	0.006	0.0000005	1380.003	524.862	1939.717	3509.201	4962.006	1179.816
7	0.007	0.000001	3337.806	687.206	4877.917	1401.292	--undefined--	--undefined--
8	0.008	0.000002	1326.659	665.221	4841.080	1221.087	--undefined--	--undefined--
9	0.009	0.000002	1417.749	956.479	2897.951	1246.752	4798.571	1417.996
10	0.010	0.000001	897.500	1115.626	1669.454	784.068	4546.333	515.261
11	0.011	0.000001	1044.919	1531.047	3039.884	468.096	--undefined--	--undefined--
12	0.012	0.0000007	676.700	2453.651	1624.575	1005.894	5079.738	3447.897
13	0.013	0.000001	1350.872	429.314	3535.654	740.459	4929.302	877.827
14	0.014	0.000002	1336.741	486.631	2427.916	607.249	--undefined--	--undefined--
15	0.015	0.000002	1134.201	934.337	3892.408	2010.507	4320.326	6365.538
16	0.016	0.000002	822.335	2801.280	1590.157	732.630	5041.311	495.184
17	0.017	0.000002	1640.655	770.252	2029.647	2031.711	4974.286	463.116
18	0.018	0.000003	737.822	2577.602	1484.625	1089.550	4626.304	1305.849
19	0.019	0.000005	1350.212	766.555	3379.795	1404.959	--undefined--	--undefined--
20	0.020	0.000007	879.874	591.028	1910.422	562.917	5081.092	693.310
21	0.021	0.000007	833.851	1887.696	4432.962	496.217	--undefined--	--undefined--
22	0.022	0.000006	585.749	1529.920	1692.372	1448.724	3793.526	3610.565
23	0.023	0.000006	1806.782	867.269	3022.308	897.364	--undefined--	--undefined--
24	0.024	0.00002	539.377	803.169	3463.029	2070.721	--undefined--	--undefined--
25	0.025	0.00003	472.009	563.979	1569.040	721.928	3918.335	678.852
26	0.026	0.00005	990.999	562.289	1841.575	578.876	--undefined--	--undefined--
27	0.027	0.00020	633.153	1461.728	--undefined--	--undefined--	--undefined--	--undefined--
28	0.028	0.00024	1121.086	673.603	3567.136	1894.180	--undefined--	--undefined--
29	0.029	0.00024	1136.981	781.704	2578.914	944.852	--undefined--	--undefined--
30	0.030	0.00009	1123.158	786.717	2779.459	2994.126	--undefined--	--undefined--
31	0.031	0.00039	815.068	487.354	2329.191	502.047	5279.809	1443.177
32	0.032	0.00039	1072.225	673.126	2055.838	1066.217	5075.683	1428.884
33	0.033	0.00042	849.484	1697.624	1392.727	1231.235	4102.082	1811.080
34	0.034	0.00343	1053.492	834.655	1883.666	1296.360	4110.580	1369.582
35	0.035	0.00343	1017.697	578.982	1949.204	783.885	3904.772	1639.384
36	0.036	0.00093	766.596	660.913	1749.613	513.846	3357.016	912.451
37	0.037	0.00217	987.382	609.802	2633.963	740.563	--undefined--	--undefined--
38	0.038	0.00217	746.601	747.688	1693.849	736.898	3446.052	776.160
39	0.039	0.00086	1143.046	478.916	3318.441	1031.489	--undefined--	--undefined--
40	0.040	0.00665	851.484	445.951	2960.906	549.182	--undefined--	--undefined--
41	0.041	0.00665	829.619	961.025	1865.165	1075.671	3619.438	955.709
42	0.042	0.00142	1253.595	484.805	3543.391	1263.714	--undefined--	--undefined--
43	0.043	0.00879	1135.778	604.974	3028.924	692.418	--undefined--	--undefined--
44	0.044	0.00879	817.059	1194.153	1870.559	1467.220	3650.137	1184.029
45	0.045	0.00276	1050.930	811.772	1590.307	1136.685	3693.035	479.073
46	0.046	0.01254	1196.342	461.247	2953.928	805.279	--undefined--	--undefined--
47	0.047	0.01254	1094.770	1811.749	1351.732	2778.265	3537.948	1866.246
48	0.048	0.00298	1281.214	553.549	4162.553	2276.069	--undefined--	--undefined--
49	0.049	0.01383	1200.745	487.406	3203.539	1212.098	--undefined--	--undefined--
50	0.050	0.01383	1015.752	1720.593	1883.342	3236.840	3699.850	2209.694
51	0.051	0.00417	998.220	639.227	1718.380	804.696	3769.513	492.439
52	0.052	0.02010	784.956	4553.996	1186.228	538.864	3837.564	857.629
53	0.053	0.02010	1004.298	1419.405	2140.680	1898.161	3884.474	1342.291
54	0.054	0.00383	1111.076	759.722	1841.216	1302.922	3888.894	1037.544
55	0.055	0.02246	1156.141	672.979	1898.671	2421.020	3951.492	990.125
56	0.056	0.02246	1331.964	886.048	2581.899	3082.001	4046.894	1884.984
57	0.057	0.00420	961.149	895.706	1936.872	970.245	3620.840	1075.835
58	0.058	0.02425	988.940	962.870	1929.376	1314.358	3932.018	995.761
59	0.059	0.02425	1480.060	588.036	4178.139	1703.423	--undefined--	--undefined--
60	0.060	0.01909	1421.956	811.619	2624.042	893.857	--undefined--	--undefined--
61	0.061	0.01909	893.969	1269.330	1823.268	1259.138	4039.468	1386.176
62	0.062	0.01602	1651.936	856.792	2999.752	1354.376	--undefined--	--undefined--
63	0.063	0.01750	247.802	1336.099	1926.170	666.585	3905.085	1481.434
64	0.064	0.01750	856.469	653.651	1723.917	529.420	4066.013	898.855
65	0.065	0.01375	1739.350	568.431	2976.436	713.334	--undefined--	--undefined--
66	0.066	0.01725	137.547	1068.031	2014.612	1009.897	--undefined--	--undefined--
67	0.067	0.01725	1103.416	700.508	2090.336	900.691	--undefined--	--undefined--
68	0.068	0.01535	1536.949	354.257	3348.496	1065.419	--undefined--	--undefined--
69	0.069	0.01319	844.462	1173.509	2108.213	1676.657	--undefined--	--undefined--
70	0.070	0.01319	985.941	2886.019	1335.650	862.490	4146.080	1624.934
71	0.071	0.00679	1511.230	578.860	2871.031	1048.585	4440.246	2294.712
72	0.072	0.01338	1086.178	1065.339	2159.703	1943.059	4054.440	1456.650
73	0.073	0.01338	1136.746	978.449	1935.669	1942.117	3692.733	1452.247
74	0.074	0.01197	1146.814	591.086	3388.736	796.047	--undefined--	--undefined--
75	0.075	0.01197	663.888	2596.521	1340.413	770.808	4003.413	907.071
76	0.076	0.01065	1327.237	720.517	3460.575	1205.651	--undefined--	--undefined--
77	0.077	0.01533	1077.016	778.333	5026.585	1644.574	--undefined--	--undefined--
78	0.078	0.01533	1217.568	1203.599	1488.671	2205.592	3083.470	2273.462
79	0.079	0.00752	978.138	918.707	1945.168	791.003	3246.643	606.502
80	0.080	0.01326	1041.668	692.655	2083.113	1153.994	3906.549	1102.412
81	0.081	0.01326	991.942	686.505	1861.710	896.858	3500.590	1211.928
82	0.082	0.01552	1200.021	665.440	3377.949	2926.167	--undefined--	--undefined--
83	0.083	0.01552	839.979	966.175	1600.216	784.691	3842.423	771.332
84	0.084	0.00852	994.665	1353.838	1415.047	806.726	3482.020	572.653
85	0.085	0.01088	1177.584	601.163	2849.451	1599.726	--undefined--	--undefined--
86	0.086	0.01088	954.961	1308.990	1598.133	988.579	5368.653	3547.325
87	0.087	0.00670	1305.044	736.669	2481.662	1271.711	--undefined--	--undefined--
88	0.088	0.01060	924.986	1061.401	1736.285	1170.963	3742.224	1087.253
89	0.089	0.01060	1252.203	745.663	2706.152	1282.108	--undefined--	--undefined--
90	0.090	0.00716	1376.830	582.363	2562.947	1343.873	--undefined--	--undefined--
91	0.091	0.00716	1035.881	618.321	1885.236	980.758	3371.457	1480.216
92	0.092	0.00464	1181.163	735.631	2485.940	1737.755	--undefined--	--undefined--
93	0.093	0.00532	1074.096	623.640	2120.501	1058.840	3797.917	975.744
94	0.094	0.00532	1158.042	639.321	2276.543	1198.202	--undefined--	--undefined--
95	0.095	0.00343	1668.061	697.765	3255.420	2046.844	--undefined--	--undefined--
96	0.096	0.00343	633.662	660.210	1604.450	556.979	3529.054	586.923
97	0.097	0.00260	754.283	572.527	1627.235	490.503	4443.833	1440.667
98	0.098	0.00137	953.705	950.172	2263.458	1580.842	3898.837	1308.112
99	0.099	0.00137	1011.761	829.428	1960.917	1080.765	3575.901	979.995
100	0.100	0.00047	1019.896	921.957	3547.861	1127.937	--undefined--	--undefined--
101	0.101	0.00079	477.253	1204.271	1360.966	780.269	3700.276	525.564
102	0.102	0.00079	1336.101	623.173	2996.071	858.968	5040.432	3977.059
103	0.103	0.00047	717.280	5832.993	752.079	1274.597	3346.368	838.420
104	0.104	0.00071	1232.823	547.766	1967.497	1038.283	4278.816	1591.899
105	0.105	0.00071	675.004	806.376	1696.379	550.710	3461.193	1608.916
106	0.106	0.00049	1128.404	690.974	2258.873	931.705	--undefined--	--undefined--
107	0.107	0.00049	443.337	1230.853	1271.904	713.817	3600.416	1107.594
108	0.108	0.00042	1367.093	966.774	3662.265	2687.217	--undefined--	--undefined--
109	0.109	0.00060	1842.237	380.597	--undefined--	--undefined--	--undefined--	--undefined--
110	0.110	0.00060	547.192	697.257	1459.472	578.648	3776.912	1380.123
111	0.111	0.00041	1140.364	633.752	2271.799	807.780	--undefined--	--undefined--
112	0.112	0.00041	518.157	1125.991	1494.009	1169.213	3350.508	1743.273
113	0.113	0.00026	741.693	382.305	3093.870	949.548	--undefined--	--undefined--
114	0.114	0.00041	321.610	633.228	2126.744	1386.327	3779.896	1232.850
115	0.115	0.00041	528.641	916.663	1361.391	903.916	3597.339	936.010
116	0.116	0.00025	973.864	561.157	1913.572	662.973	--undefined--	--undefined--
117	0.117	0.00034	512.953	502.038	1481.834	447.910	3771.087	1126.913
118	0.118	0.00034	916.244	425.317	3206.979	3000.164	--undefined--	--undefined--
119	0.119	0.00050	931.020	1167.335	2171.842	1294.154	--undefined--	--undefined--
120	0.120	0.00050	885.053	508.671	1949.826	544.942	--undefined--	--undefined--
121	0.121	0.00034	643.779	1264.442	1637.498	1359.092	3098.848	2114.539
122	0.122	0.00056	992.938	432.727	1859.611	436.097	--undefined--	--undefined--
123	0.123	0.00056	724.595	1072.747	1355.721	1040.591	--undefined--	--undefined--
124	0.124	0.00032	502.578	1210.315	1533.874	1188.840	--undefined--	--undefined--
125	0.125	0.00032	413.934	540.352	1264.746	529.837	4779.897	2969.032
126	0.126	0.00029	695.510	701.032	1935.630	1023.788	--undefined--	--undefined--
127	0.127	0.00026	685.341	451.661	1505.909	437.957	4416.604	3013.336
128	0.128	0.00034	864.077	460.435	1728.422	527.183	4457.655	3740.931
129	0.129	0.00034	912.892	424.112	1776.428	374.273	--undefined--	--undefined--
130	0.130	0.00022	737.341	1016.076	2056.405	1069.491	--undefined--	--undefined--
131	0.131	0.00023	452.279	742.329	2083.288	753.954	--undefined--	--undefined--
132	0.132	0.00029	882.329	441.552	1719.300	397.448	--undefined--	--undefined--
133	0.133	0.00034	1954.814	476.073	3248.566	2916.484	--undefined--	--undefined--
134	0.134	0.00034	700.860	467.175	1452.838	518.715	2348.637	780.843
135	0.135	0.00022	434.076	1265.690	1269.601	1154.999	2311.787	1199.400
136	0.136	0.00020	716.738	634.232	2021.940	543.659	--undefined--	--undefined--
137	0.137	0.00025	411.194	826.372	1241.253	712.736	--undefined--	--undefined--
138	0.138	0.00035	360.754	2169.049	1809.190	879.338	3171.254	3076.924
139	0.139	0.00035	890.005	742.776	1784.357	811.104	--undefined--	--undefined--
140	0.140	0.00021	1016.830	830.301	1865.867	979.157	--undefined--	--undefined--
141	0.141	0.00022	851.812	716.711	1863.234	637.519	--undefined--	--undefined--
142	0.142	0.00022	403.822	669.572	1224.989	574.666	3822.597	1790.273
143	0.143	0.00030	897.255	1219.947	1874.718	839.538	--undefined--	--undefined--
144	0.144	0.00030	514.573	651.472	1442.223	578.123	3512.959	4977.873
145	0.145	0.00021	890.622	525.827	1699.018	611.516	--undefined--	--undefined--
146	0.146	0.00024	1132.417	1174.793	2234.680	1084.234	--undefined--	--undefined--
147	0.147	0.00024	929.946	638.675	1695.366	2428.030	--undefined--	--undefined--
148	0.148	0.00029	1012.627	1316.034	2114.806	1112.126	--undefined--	--undefined--
149	0.149	0.00029	436.211	480.430	1370.847	506.408	3192.620	1092.268
150	0.150	0.00017	925.010	738.126	1827.035	691.224	--undefined--	--undefined--
151	0.151	0.00022	972.798	555.184	1902.916	541.152	--undefined--	--undefined--
152	0.152	0.00022	1008.448	757.865	2409.156	1339.380	--undefined--	--undefined--
153	0.153	0.00027	951.739	541.115	1961.290	555.772	--undefined--	--undefined--
154	0.154	0.00027	403.959	831.421	1034.165	5888.351	2301.991	1781.542
155	0.155	0.00021	1123.553	1138.382	2299.733	1403.570	--undefined--	--undefined--
156	0.156	0.00018	1023.820	522.912	1939.944	556.846	--undefined--	--undefined--
157	0.157	0.00024	1010.666	819.464	2316.209	1657.162	--undefined--	--undefined--
158	0.158	0.00025	892.668	550.134	1810.695	541.223	--undefined--	--undefined--
159	0.159	0.00025	689.415	299.941	2339.998	352.600	--undefined--	--undefined--
160	0.160	0.00021	473.223	831.294	1456.932	854.712	2541.716	871.474
161	0.161	0.00021	1006.901	411.186	1886.087	475.622	--undefined--	--undefined--
162	0.162	0.00023	595.175	501.065	1615.296	481.635	--undefined--	--undefined--
163	0.163	0.00023	444.032	489.961	1326.174	476.602	2421.031	1119.962
164	0.164	0.00018	734.247	456.505	2514.619	733.055	--undefined--	--undefined--
165	0.165	0.00021	403.181	739.576	1468.492	1480.136	2385.410	1088.561
166	0.166	0.00021	718.517	541.609	1562.163	516.644	4346.048	3965.848
167	0.167	0.00029	986.808	1026.550	1620.542	1960.000	3483.630	1310.939
168	0.168	0.00029	568.724	909.874	1470.268	647.449	--undefined--	--undefined--
169	0.169	0.00018	814.512	1142.421	2444.801	1188.962	--undefined--	--undefined--
170	0.170	0.00020	483.816	663.488	2099.817	748.330	--undefined--	--undefined--
171	0.171	0.00021	911.620	614.739	1744.847	560.697	--undefined--	--undefined--
172	0.172	0.00024	1066.638	530.254	3200.046	1133.033	--undefined--	--undefined--
173	0.173	0.00024	557.860	563.837	1485.978	469.438	--undefined--	--undefined--
174	0.174	0.00019	902.142	568.758	2099.194	665.869	--undefined--	--undefined--
175	0.175	0.00021	364.706	453.006	2187.672	676.222	--undefined--	--undefined--
176	0.176	0.00021	916.268	676.535	1825.598	686.557	--undefined--	--undefined--
177	0.177	0.00025	797.971	757.789	1820.993	1490.976	3075.200	1740.126
178	0.178	0.00025	591.998	516.992	1483.423	437.110	4893.734	1760.954
179	0.179	0.00018	920.139	653.997	2113.994	783.529	--undefined--	--undefined--
180	0.180	0.00021	482.385	617.925	2378.111	1158.438	--undefined--	--undefined--
181	0.181	0.00024	946.239	636.851	1961.585	815.675	--undefined--	--undefined--
182	0.182	0.00024	731.364	923.636	2044.114	2822.897	--undefined--	--undefined--
183	0.183	0.00023	656.290	556.820	1529.777	529.774	4028.687	2225.178
184	0.184	0.00015	897.800	620.878	1952.585	670.849	--undefined--	--undefined--
185	0.185	0.00017	701.307	207.456	2864.843	586.105	--undefined--	--undefined--
186	0.186	0.00019	923.602	935.008	1881.606	1303.243	--undefined--	--undefined--
187	0.187	0.00020	684.252	690.100	3075.147	2388.092	--undefined--	--undefined--
188	0.188	0.00020	987.452	602.622	1903.096	688.054	--undefined--	--undefined--
189	0.189	0.00015	887.394	762.778	1884.099	735.905	--undefined--	--undefined--
190	0.190	0.00017	378.140	327.832	1796.125	1198.720	3521.780	2626.991
191	0.191	0.00017	490.316	597.524	1393.304	588.875	2593.110	1095.703
192	0.192	0.00017	756.177	444.389	1472.300	889.254	3196.537	1070.073
193	0.193	0.00016	827.831	862.297	1642.405	750.939	--undefined--	--undefined--
194	0.194	0.00014	817.535	1016.863	1922.581	1412.464	--undefined--	--undefined--
195	0.195	0.00014	404.372	518.948	1562.912	1182.746	--undefined--	--undefined--
196	0.196	0.00011	976.491	571.832	1895.554	684.481	--undefined--	--undefined--
197	0.197	0.00009	1023.970	615.054	--undefined--	--undefined--	--undefined--	--undefined--
198	0.198	0.00009	682.270	1283.947	1563.599	1036.988	--undefined--	--undefined--
199	0.199	0.00004	785.516	1214.158	2031.669	1209.212	--undefined--	--undefined--
200	0.200	0.00004	911.371	602.488	1784.892	451.846	--undefined--	--undefined--
201	0.201	0.00003	850.610	680.083	1737.121	592.164	--undefined--	--undefined--
202	0.202	0.00001	640.496	1806.226	1868.622	945.576	--undefined--	--undefined--
203	0.203	0.000008	1197.441	775.377	3685.834	942.685	--undefined--	--undefined--
204	0.204	0.000002	222.144	1417.143	1234.997	1111.388	4561.275	1576.139
205	0.205	0.000003	450.315	976.878	1340.819	793.146	--undefined--	--undefined--
206	0.206	0.000003	793.589	553.977	1629.490	1446.043	4531.381	1618.588
207	0.207	0.000003	392.922	289.279	1208.871	269.090	4947.917	802.062
208	0.208	0.000006	396.530	323.054	1214.947	299.784	4627.175	2133.461
209	0.209	0.000006	441.563	1000.161	1157.663	700.446	3834.069	3577.284
210	0.210	0.000009	462.672	455.281	1345.697	435.552	--undefined--	--undefined--
211	0.211	0.00001	781.961	574.507	1677.276	670.600	--undefined--	--undefined--
212	0.212	0.00001	739.860	835.321	1493.254	852.901	--undefined--	--undefined--
213	0.213	0.000007	552.143	555.484	1306.989	515.430	--undefined--	--undefined--
214	0.214	0.000006	390.845	749.333	1217.113	747.718	4351.499	2499.257
215	0.215	0.000005	405.318	530.267	1242.750	530.249	--undefined--	--undefined--
216	0.216	0.000003	704.163	307.132	1484.635	293.916	5051.998	460.827
217	0.217	0.0000007	477.677	1589.995	1791.005	764.047	--undefined--	--undefined--
218	0.218	0.0000007	1240.046	526.090	3207.895	2985.031	--undefined--	--undefined--
219	0.219	0.000001	600.933	826.242	1710.664	527.824	5019.533	393.999
220	0.220	0.000001	752.546	876.227	1533.470	1129.279	--undefined--	--undefined--
221	0.221	0.000002	439.274	318.668	1311.727	282.006	5130.390	1153.301
222	0.222	0.000002	802.536	389.005	5032.278	1644.073	--undefined--	--undefined--
223	0.223	0.000001	391.880	359.742	1227.986	363.364	4632.156	1324.439
224	0.224	0.000001	705.829	1216.193	1526.124	1551.621	--undefined--	--undefined--
225	0.225	0.000001	397.679	532.092	1257.784	619.327	4851.529	1373.386
226	0.226	0.000001	610.778	1238.567	1168.993	695.406	4949.609	399.092
227	0.227	0.0000006	382.641	448.719	1209.112	482.721	5078.234	823.165
228	0.228	0.0000006	541.207	850.030	1340.165	670.052	4907.522	800.644
229	0.229	0.0000005	382.533	405.893	1203.397	420.385	--undefined--	--undefined--
230	0.230	0.0000005	1036.396	599.290	4840.191	841.517	--undefined--	--undefined--
231	0.231	0.0000004	380.119	744.158	1180.833	868.552	5116.558	1058.744
232	0.232	0.0000004	485.621	443.112	1377.179	373.699	--undefined--	--undefined--
233	0.233	0.0000004	845.795	554.193	--undefined--	--undefined--	--undefined--	--undefined--
234	0.234	0.0000004	547.608	721.345	3458.439	1690.606	--undefined--	--undefined--
235	0.235	0.0000002	830.539	727.135	2057.548	2971.751	--undefined--	--undefined--
236	0.236	0.0000002	414.874	689.084	1307.824	785.423	5078.156	792.794
237	0.237	0.0000003	901.768	612.566	3281.626	2388.660	--undefined--	--undefined--
238	0.238	0.0000003	996.147	606.201	4253.614	4254.501	--undefined--	--undefined--
239	0.239	0.0000002	957.687	664.680	4307.406	1846.800	--undefined--	--undefined--
240	0.240	0.0000002	611.293	679.863	2054.087	896.999	5275.828	1208.388
241	0.241	0.00000004	331.092	1077.777	2342.675	2106.936	--undefined--	--undefined--
242	0.242	0.00000002	814.847	677.869	4653.911	643.621	--undefined--	--undefined--
243	0.243	0.00000002	925.567	433.443	3757.774	1170.922	--undefined--	--undefined--
244	0.244	0.00000006	429.970	706.655	1429.807	724.224	--undefined--	--undefined--
245	0.245	0.00000006	807.194	825.520	3429.004	1646.165	--undefined--	--undefined--
246	0.246	0.00000005	1075.631	873.145	1349.417	1279.622	4837.013	623.046
247	0.247	0.00000003	667.737	902.583	4539.690	3119.157	--undefined--	--undefined--
248	0.248	0.00000004	669.415	876.231	3305.408	2051.763	--undefined--	--undefined--
249	0.249	0.00000004	878.978	592.780	3152.756	4639.197	3426.074	949.284
250	0.250	0.00000003	75.588	962.002	2301.229	1309.027	5013.350	357.622
251	0.251	0.00000003	852.438	670.282	4007.486	1446.007	--undefined--	--undefined--
252	0.252	0.00000003	896.700	754.256	4042.517	1494.877	--undefined--	--undefined--
253	0.253	0.00000004	901.185	1217.251	3010.365	1266.565	4967.841	1286.019
254	0.254	0.00000004	1175.561	1056.190	3946.493	548.416	--undefined--	--undefined--
255	0.255	0.00000003	1242.964	470.270	2692.065	1515.502	5116.908	2101.338
256	0.256	0.00000003	1415.827	1270.949	4529.482	1743.474	--undefined--	--undefined--
257	0.257	0.00000004	579.811	1117.653	3254.643	2640.746	--undefined--	--undefined--
258	0.258	0.00000005	1406.571	1942.118	2940.925	665.629	--undefined--	--undefined--
259	0.259	0.00000005	757.796	889.992	4739.740	1209.019	--undefined--	--undefined--
260	0.260	0.00000005	535.737	753.867	4846.973	963.954	--undefined--	--undefined--
261	0.261	0.00000003	873.128	672.294	3920.995	1758.483	--undefined--	--undefined--
262	0.262	0.00000002	635.371	1517.725	3174.556	994.864	4966.274	1031.233
263	0.263	0.0000006	566.945	696.439	3529.793	1084.922	--undefined--	--undefined--
264	0.264	0.00006	1479.486	2468.855	2557.432	2008.704	4221.783	1399.985
265	0.265	0.00006	1067.051	914.299	2891.182	663.047	4698.535	1184.862
266	0.266	0.00004	1198.314	694.145	2480.632	6433.561	3810.704	464.443
267	0.267	0.00002	1192.878	1155.566	2538.793	1371.814	4164.803	662.732
268	0.268	0.000010	1342.542	833.859	3982.903	523.064	--undefined--	--undefined--
269	0.269	0.000004	1686.996	756.615	4227.099	767.612	--undefined--	--undefined--
270	0.270	0.00002	1997.565	1133.547	3575.429	1506.552	--undefined--	--undefined--
271	0.271	0.00002	1455.052	790.243	2883.056	1275.429	4626.552	2294.532
272	0.272	0.00001	1293.551	737.536	2414.930	715.672	--undefined--	--undefined--
273	0.273	0.000004	1370.506	1299.462	3093.366	1015.799	--undefined--	--undefined--
274	0.274	0.0000008	2376.020	1565.898	3470.291	2119.702	--undefined--	--undefined--
275	0.275	0.0000007	2423.148	1570.769	4296.899	2081.492	--undefined--	--undefined--
276	0.276	0.000007	1528.235	2978.885	2508.384	1010.197	4879.411	1119.699
277	0.277	0.000007	1217.782	950.348	1707.693	1630.125	4131.401	1667.049
278	0.278	0.000007	625.831	744.674	1681.670	693.418	4594.597	1178.783
279	0.279	0.000002	207.754	1104.222	2342.642	623.587	4481.978	749.292
280	0.280	0.000002	779.162	600.801	2268.349	961.575	3354.577	472.807
281	0.281	0.000004	456.755	584.483	1411.322	667.647	4162.677	465.660
282	0.282	0.000009	1010.505	800.484	4235.937	2401.087	--undefined--	--undefined--
283	0.283	0.00001	936.877	753.376	3692.907	605.848	--undefined--	--undefined--
284	0.284	0.00006	262.970	1147.987	1856.240	1578.159	4450.995	1009.369
285	0.285	0.00006	497.236	502.218	1420.331	429.923	4212.154	3236.387
286	0.286	0.00004	507.168	1009.249	1684.533	353.524	--undefined--	--undefined--
287	0.287	0.00035	1042.891	786.551	2385.060	2375.806	--undefined--	--undefined--
288	0.288	0.00072	884.987	858.245	1703.100	846.432	--undefined--	--undefined--
289	0.289	0.00072	1036.706	736.785	1887.490	708.638	--undefined--	--undefined--
290	0.290	0.00349	773.607	758.004	1633.403	861.354	3578.955	670.900
291	0.291	0.00349	510.884	591.508	1439.638	519.869	2838.864	1650.899
292	0.292	0.00510	730.999	711.301	1400.016	618.628	3680.319	567.959
293	0.293	0.00510	531.404	1100.687	1368.452	925.657	3559.324	998.551
294	0.294	0.00335	994.907	667.496	1516.536	1350.782	3578.583	1686.290
295	0.295	0.00526	866.984	525.993	1720.444	736.765	3671.462	614.753
296	0.296	0.00526	1052.137	1022.151	1906.589	1664.969	--undefined--	--undefined--
297	0.297	0.00327	800.459	503.431	1525.050	565.923	3585.671	525.290
298	0.298	0.00530	504.895	742.247	1434.482	696.225	3523.716	844.554
299	0.299	0.00530	678.565	931.319	1479.488	907.983	3269.659	1391.169
300	0.300	0.00555	618.633	835.901	1491.611	656.030	4177.782	1376.175
301	0.301	0.00555	932.070	696.302	1601.355	1175.251	4604.578	4467.344
302	0.302	0.00365	851.137	1846.598	1296.064	1174.508	4025.021	8244.179
303	0.303	0.00490	497.967	1082.894	1324.958	696.352	3761.258	707.085
304	0.304	0.00490	513.079	682.401	1408.361	566.400	3680.853	1248.012
305	0.305	0.00507	563.563	530.185	1452.375	410.775	3735.479	939.098
306	0.306	0.00507	711.510	404.909	1507.511	369.688	3490.902	823.727
307	0.307	0.00298	608.181	618.360	1474.710	473.064	3839.934	1769.661
308	0.308	0.00545	757.952	744.205	1570.060	818.022	3613.538	659.553
309	0.309	0.00545	493.974	443.595	1400.123	366.917	3274.243	943.947
310	0.310	0.00496	611.801	676.446	1447.967	540.640	3772.422	1125.707
311	0.311	0.00496	646.784	580.991	1527.376	536.328	3478.370	876.986
312	0.312	0.00324	641.791	442.804	1490.322	349.813	3502.094	583.301
313	0.313	0.00480	827.748	542.226	1686.843	706.253	3615.842	701.374
314	0.314	0.00480	835.806	1708.907	1496.271	1324.587	--undefined--	--undefined--
315	0.315	0.00505	624.982	506.345	1445.771	396.929	3689.380	489.142
316	0.316	0.00505	616.765	582.295	1529.558	534.037	3398.592	918.247
317	0.317	0.00298	686.426	505.432	1528.092	443.413	3257.776	827.108
318	0.318	0.00479	804.865	475.514	1650.126	547.353	3848.863	879.098
319	0.319	0.00479	951.970	746.837	1825.744	744.682	--undefined--	--undefined--
320	0.320	0.00568	615.915	739.039	1434.573	569.080	4199.074	1392.904
321	0.321	0.00568	639.442	568.667	1547.200	532.151	3445.149	821.653
322	0.322	0.00351	985.587	853.116	1758.691	889.620	--undefined--	--undefined--
323	0.323	0.00662	735.850	550.320	1596.484	574.277	3455.753	820.392
324	0.324	0.00662	959.123	927.430	1730.945	976.083	--undefined--	--undefined--
325	0.325	0.00711	547.522	505.631	1422.783	378.268	3776.618	975.025
326	0.326	0.00711	737.662	455.831	1550.623	446.536	3509.231	752.291
327	0.327	0.00454	646.501	776.578	1476.137	566.772	3551.902	2180.870
328	0.328	0.00802	587.443	716.180	1453.996	565.300	3674.622	1032.235
329	0.329	0.00802	596.299	688.502	1486.967	520.220	--undefined--	--undefined--
330	0.330	0.00830	703.711	1788.151	1374.338	1010.856	--undefined--	--undefined--
331	0.331	0.00830	749.289	347.512	1531.969	329.660	3489.269	667.595
332	0.332	0.00581	1011.270	700.210	1767.614	1104.717	--undefined--	--undefined--
333	0.333	0.00893	525.068	854.418	1435.690	707.058	3625.769	1503.986
334	0.334	0.00893	1027.747	585.631	1915.315	1104.166	--undefined--	--undefined--
335	0.335	0.00853	848.793	517.253	1718.997	688.252	3345.111	799.991
336	0.336	0.00853	1075.608	815.343	2096.725	1251.563	--undefined--	--undefined--
337	0.337	0.00825	604.388	529.864	1493.073	449.312	3108.456	755.516
338	0.338	0.00825	708.450	509.718	1565.910	488.336	3185.802	895.839
339	0.339	0.00449	706.930	494.654	1555.439	431.826	3133.099	670.459
340	0.340	0.00866	551.689	560.630	1471.715	432.339	3727.084	911.390
341	0.341	0.00866	786.658	326.712	1576.162	303.058	3381.006	981.270
342	0.342	0.00953	797.463	508.369	1653.550	571.645	3408.280	1004.811
343	0.343	0.00953	1058.405	714.418	2001.066	808.812	--undefined--	--undefined--
344	0.344	0.01132	592.847	713.031	1488.571	552.220	--undefined--	--undefined--
345	0.345	0.01132	794.226	469.328	1570.020	451.762	3668.550	1614.557
346	0.346	0.01137	850.456	442.257	1599.746	479.764	--undefined--	--undefined--
347	0.347	0.01137	612.510	845.769	1537.740	759.931	3275.937	1495.862
348	0.348	0.00638	949.961	1182.867	1640.536	1272.482	--undefined--	--undefined--
349	0.349	0.01089	634.554	572.742	1508.906	446.190	3692.936	655.074
350	0.350	0.01089	920.024	677.841	1661.232	800.016	--undefined--	--undefined--
351	0.351	0.01122	1028.938	730.430	1943.793	1331.082	--undefined--	--undefined--
352	0.352	0.01122	1085.129	550.112	2072.728	651.401	--undefined--	--undefined--
353	0.353	0.01145	818.554	902.769	1604.860	626.506	--undefined--	--undefined--
354	0.354	0.01145	928.213	574.736	1698.376	781.486	3701.598	2679.576
355	0.355	0.01438	938.026	548.702	1711.787	853.343	--undefined--	--undefined--
356	0.356	0.01438	809.207	1501.317	1429.212	1305.856	3221.326	2546.215
357	0.357	0.00992	811.424	1101.310	1614.498	979.483	--undefined--	--undefined--
358	0.358	0.01526	584.604	654.825	1483.342	482.160	3747.378	930.121
359	0.359	0.01526	941.730	630.294	1729.875	699.428	--undefined--	--undefined--
360	0.360	0.01480	845.587	476.540	1686.318	558.848	3496.995	881.099
361	0.361	0.01480	1087.831	588.844	2015.311	695.431	--undefined--	--undefined--
362	0.362	0.01331	824.803	780.201	1688.388	886.778	3241.911	1582.571
363	0.363	0.01331	1092.747	866.157	2010.292	990.898	--undefined--	--undefined--
364	0.364	0.01373	636.061	748.751	1546.932	643.942	3122.313	1504.693
365	0.365	0.01373	736.974	763.417	1605.153	608.104	3131.200	3903.160
366	0.366	0.01150	686.493	733.490	1481.182	543.554	--undefined--	--undefined--
367	0.367	0.01150	822.909	368.317	1636.395	385.198	3115.269	779.104
368	0.368	0.01404	1025.682	643.157	1804.386	1527.768	3946.575	4557.161
369	0.369	0.01404	897.015	674.553	1720.627	884.986	3191.525	1262.051
370	0.370	0.01379	885.741	599.146	1696.893	789.651	3372.429	1225.465
371	0.371	0.01379	823.860	1264.132	1514.604	1201.328	3299.201	1587.937
372	0.372	0.00928	727.351	619.593	1566.653	506.849	3474.041	733.444
373	0.373	0.01245	621.436	875.522	1507.620	682.407	3534.567	899.424
374	0.374	0.01245	680.728	458.839	1554.284	333.860	3367.446	570.337
375	0.375	0.01244	586.635	850.827	1457.024	591.807	3657.746	642.676
376	0.376	0.01244	1203.458	726.853	2276.394	1370.359	--undefined--	--undefined--
377	0.377	0.01376	654.899	877.904	1538.425	720.510	3592.694	941.855
378	0.378	0.01376	1077.671	843.801	2023.370	1467.517	3476.811	8196.262
379	0.379	0.01750	746.279	750.197	1629.997	718.682	3513.209	1051.075
380	0.380	0.01750	922.168	511.779	1770.048	662.664	3413.481	1374.703
381	0.381	0.01822	847.138	591.818	1706.474	675.323	3522.963	1027.344
382	0.382	0.01822	1014.850	710.926	1873.477	1105.206	--undefined--	--undefined--
383	0.383	0.01980	881.224	967.745	1632.973	1024.400	3829.682	2690.900
384	0.384	0.01980	972.587	559.773	1815.069	832.072	3655.529	2169.723
385	0.385	0.01881	944.652	812.562	1759.185	992.756	4927.622	4741.929
386	0.386	0.01881	915.940	464.671	1753.987	595.665	3403.329	1315.189
387	0.387	0.01665	936.215	765.857	1770.824	925.214	3102.321	3347.687
388	0.388	0.01665	922.046	487.153	1752.242	631.557	3045.384	1764.520
389	0.389	0.01539	799.407	605.563	1666.396	564.954	3429.098	1187.028
390	0.390	0.01539	1005.390	554.269	1889.259	833.223	3047.407	3299.189
391	0.391	0.01260	777.982	736.605	1660.266	656.368	3555.956	1716.962
392	0.392	0.01260	1031.063	605.122	1921.936	927.651	--undefined--	--undefined--
393	0.393	0.01234	686.913	629.741	1614.817	509.856	3164.667	1237.236
394	0.394	0.01234	980.497	727.397	1826.046	982.896	3551.931	2724.842
395	0.395	0.01267	667.549	650.711	1620.752	474.350	3846.881	2362.305
396	0.396	0.01267	1012.253	942.482	1818.384	1164.932	--undefined--	--undefined--
397	0.397	0.01192	638.943	516.617	1585.968	374.448	3372.310	1268.843
398	0.398	0.01206	1005.209	1125.410	1587.412	1321.213	3556.566	2845.347
399	0.399	0.01206	823.532	943.820	1704.058	807.199	3175.720	4398.613
400	0.400	0.01144	1030.777	775.975	1717.587	1164.701	--undefined--	--undefined--
401	0.401	0.01280	1076.502	673.170	2051.926	966.232	--undefined--	--undefined--
402	0.402	0.01280	895.270	489.772	1607.583	519.308	4152.583	2195.196
403	0.403	0.01575	1128.507	597.190	2167.850	801.684	--undefined--	--undefined--
404	0.404	0.01575	748.191	480.770	1558.481	361.211	3609.088	2026.929
405	0.405	0.01812	1153.042	974.425	2156.472	1338.429	--undefined--	--undefined--
406	0.406	0.01812	1071.096	921.860	1934.926	1165.798	--undefined--	--undefined--
407	0.407	0.01623	712.043	897.734	1623.350	721.747	3536.807	1603.299
408	0.408	0.01888	1042.983	651.100	1989.357	1024.575	3480.433	2598.405
409	0.409	0.01888	823.796	950.014	1561.717	723.861	3872.286	2526.495
410	0.410	0.01700	905.122	624.119	1831.374	715.598	3447.862	862.993
411	0.411	0.01700	954.569	512.510	1747.433	649.406	3266.278	870.672
412	0.412	0.01898	678.538	740.516	1597.377	575.246	3552.714	645.449
413	0.413	0.01898	1005.384	908.350	1837.369	1214.586	3212.816	1147.274
414	0.414	0.01754	789.182	1815.362	1334.881	834.017	3492.717	1339.444
415	0.415	0.01754	1182.060	615.103	2843.941	1360.473	3047.710	5516.692
416	0.416	0.01574	1174.002	636.850	2513.990	1242.812	--undefined--	--undefined--
417	0.417	0.01574	1201.028	394.677	2995.658	542.705	--undefined--	--undefined--
418	0.418	0.01544	1176.246	1010.786	2537.167	1740.488	--undefined--	--undefined--
419	0.419	0.01593	1238.087	513.769	3010.484	878.298	--undefined--	--undefined--
420	0.420	0.01593	754.794	853.630	1752.074	823.409	3257.673	783.917
421	0.421	0.01295	1005.461	839.498	1999.543	1205.665	3475.098	1214.184
422	0.422	0.01295	979.987	655.310	1571.066	800.353	3359.211	393.262
423	0.423	0.01132	799.142	1210.333	1643.217	1081.269	3186.957	1236.034
424	0.424	0.01341	1083.414	583.902	1935.413	1016.374	3423.291	756.270
425	0.425	0.01341	855.356	420.795	1646.340	392.673	3307.325	749.708
426	0.426	0.01422	1027.339	1146.135	1467.528	846.699	3470.474	895.045
427	0.427	0.01422	730.001	889.767	1733.752	798.060	3118.878	986.116
428	0.428	0.01362	924.826	650.780	1841.432	748.595	3379.564	724.453
429	0.429	0.01362	971.983	578.310	1819.708	787.391	3401.814	683.201
430	0.430	0.01098	804.266	1175.112	1685.390	1089.924	2893.127	1734.506
431	0.431	0.01041	1252.882	596.994	2233.596	1758.360	--undefined--	--undefined--
432	0.432	0.01041	882.761	570.794	1710.078	542.788	3171.171	2595.677
433	0.433	0.00805	1090.578	544.175	1754.880	683.219	3912.333	842.976
434	0.434	0.00805	816.393	1608.888	1641.441	1405.559	2979.427	1915.778
435	0.435	0.00678	705.858	835.689	1772.339	729.821	3452.310	1106.507
436	0.436	0.00789	1112.929	419.746	1891.094	527.183	3820.329	652.045
437	0.437	0.00789	965.015	583.247	1804.133	832.264	2500.616	1647.314
438	0.438	0.00937	988.726	377.933	1767.533	352.112	4438.463	784.026
439	0.439	0.00937	761.465	1257.952	1743.706	1028.822	3680.876	3378.698
440	0.440	0.00855	703.155	815.777	1690.936	666.855	3635.147	1559.978
441	0.441	0.00873	1264.388	484.961	2194.530	1325.054	3779.695	1460.111
442	0.442	0.00873	1015.448	558.884	1940.684	652.890	2876.075	5298.150
443	0.443	0.00871	1061.320	467.574	1821.520	492.198	4612.815	931.417
444	0.444	0.00871	721.463	1101.021	1766.626	877.007	--undefined--	--undefined--
445	0.445	0.00793	1160.459	1189.880	2135.681	1114.231	--undefined--	--undefined--
446	0.446	0.00793	956.812	1507.689	1812.966	1855.117	3502.539	1025.955
447	0.447	0.00649	881.241	586.248	1806.476	570.707	3932.251	1986.106
448	0.448	0.00712	1483.666	654.522	2378.888	1163.033	4730.204	1363.326
449	0.449	0.00712	661.727	642.714	1745.279	528.292	3588.058	1379.832
450	0.450	0.00883	1323.298	1170.843	2646.347	1488.831	--undefined--	--undefined--
451	0.451	0.00883	1090.247	3150.257	2931.460	828.992	--undefined--	--undefined--
452	0.452	0.00882	849.210	573.412	1741.682	506.610	4075.459	867.436
453	0.453	0.00711	562.220	1700.084	2364.901	725.736	4965.550	1479.996
454	0.454	0.00711	626.508	833.606	1702.723	670.611	4289.312	1038.680
455	0.455	0.01005	675.860	1087.242	1999.200	1016.483	3635.837	1036.545
456	0.456	0.01005	436.700	672.582	2432.572	500.324	3636.132	536.728
457	0.457	0.00900	860.200	620.791	1703.619	578.151	4051.021	594.341
458	0.458	0.01003	689.713	791.296	2300.019	379.706	4135.468	996.002
459	0.459	0.01003	530.675	1143.659	1716.902	956.825	4323.306	896.338
460	0.460	0.00852	626.898	1806.029	1993.602	1876.522	3863.467	2727.974
461	0.461	0.00971	530.140	706.877	2346.422	731.194	3587.779	830.650
462	0.462	0.00971	925.285	507.766	1788.986	590.611	3981.126	535.329
463	0.463	0.00882	558.677	1193.134	2499.279	531.570	4790.401	3860.159
464	0.464	0.00978	519.231	869.285	1916.783	3701.842	3914.868	858.043
465	0.465	0.00978	667.449	1071.077	1876.370	1036.328	3766.793	898.353
466	0.466	0.01159	732.322	772.205	2057.229	753.247	3632.045	883.226
467	0.467	0.01159	955.734	775.204	2005.525	1157.990	3889.307	623.384
468	0.468	0.01327	618.652	654.248	2361.463	845.453	3751.132	816.577
469	0.469	0.01412	457.962	609.470	2212.452	1110.367	3842.662	514.209
470	0.470	0.01412	687.548	1909.466	1462.186	987.797	3953.076	611.821
471	0.471	0.01299	846.591	571.661	2287.878	549.158	3933.973	815.545
472	0.472	0.01299	606.451	923.154	2117.762	1541.258	3874.895	607.963
473	0.473	0.01327	665.573	1128.397	2113.682	1321.019	3823.975	988.503
474	0.474	0.01647	589.294	795.133	2099.275	1036.126	3549.175	582.852
475	0.475	0.01647	1173.975	714.777	1332.230	4092.812	3945.495	594.089
476	0.476	0.01915	761.361	533.183	2451.434	475.123	4331.566	1404.543
477	0.477	0.01915	576.353	666.634	3623.881	512.234	--undefined--	--undefined--
478	0.478	0.01769	692.598	1716.252	1675.335	1586.336	3903.296	966.457
479	0.479	0.01703	636.549	798.330	2477.920	1242.291	3702.724	1235.071
480	0.480	0.01703	750.522	470.031	2811.069	937.891	3967.698	665.988
481	0.481	0.01944	833.691	725.001	2295.406	797.534	4025.649	1463.421
482	0.482	0.01944	857.787	1408.017	3574.563	466.364	--undefined--	--undefined--
483	0.483	0.01875	1206.217	1135.389	3909.184	639.074	--undefined--	--undefined--
484	0.484	0.01669	594.254	538.476	2737.624	983.993	4370.905	2118.818
485	0.485	0.01669	844.700	402.127	3088.158	1151.721	4095.105	781.073
486	0.486	0.01543	805.801	905.661	2124.957	1031.217	3972.199	1185.036
487	0.487	0.01543	986.383	630.814	3287.645	818.076	--undefined--	--undefined--
488	0.488	0.01353	586.075	547.146	2875.522	4263.570	3795.186	561.982
489	0.489	0.00836	611.306	506.148	2589.359	2084.768	3928.356	1108.909
490	0.490	0.00836	1005.563	552.022	3908.150	968.117	--undefined--	--undefined--
491	0.491	0.00807	927.196	878.964	2141.376	1687.726	4053.224	589.994
492	0.492	0.00807	1036.254	592.125	3253.717	996.314	--undefined--	--undefined--
493	0.493	0.00440	561.861	450.634	3455.527	2407.388	3853.931	804.034
494	0.494	0.00380	908.238	588.818	3805.991	777.220	--undefined--	--undefined--
495	0.495	0.00308	950.209	800.466	3923.125	595.746	--undefined--	--undefined--
496	0.496	0.00308	947.946	719.067	3401.774	792.028	--undefined--	--undefined--
497	0.497	0.00203	750.165	681.732	2140.748	1313.614	4533.404	1861.262
498	0.498	0.00129	903.893	611.771	2242.157	1534.265	3813.442	763.659
499	0.499	0.00129	719.246	626.583	1922.160	895.210	4009.576	1167.405
500	0.500	0.00070	734.336	691.831	3816.240	510.800	--undefined--	--undefined--
501	0.501	0.00066	605.910	774.465	2152.079	2410.134	--undefined--	--undefined--
502	0.502	0.00023	1241.147	1583.249	2904.114	696.966	--undefined--	--undefined--
503	0.503	0.00022	550.248	835.537	3099.718	1084.526	4371.897	2842.599
504	0.504	0.00006	766.376	1807.317	2597.262	1140.150	4249.694	1387.041
505	0.505	0.00006	516.180	735.099	2509.711	671.738	4247.249	458.477
506	0.506	0.00008	1118.860	752.970	3600.875	1725.501	--undefined--	--undefined--
507	0.507	0.00009	2403.893	954.282	3856.317	1825.859	--undefined--	--undefined--
508	0.508	0.00009	1171.743	823.998	2598.953	1293.441	4376.438	1575.378
509	0.509	0.00008	917.017	766.967	2236.743	800.824	4241.479	941.254
510	0.510	0.00008	507.350	449.023	2248.785	615.173	4249.367	576.588
511	0.511	0.00010	1087.614	578.489	2917.824	1237.194	--undefined--	--undefined--
512	0.512	0.00011	871.273	670.180	2782.658	412.259	--undefined--	--undefined--
513	0.513	0.00014	1044.749	1099.049	2722.393	525.247	--undefined--	--undefined--
514	0.514	0.00014	987.495	755.043	1877.926	3436.699	4710.165	1895.586
515	0.515	0.00019	585.171	662.596	2295.774	1113.041	3474.514	781.386
516	0.516	0.00019	582.227	1231.690	2399.429	1720.765	--undefined--	--undefined--
517	0.517	0.00016	643.748	679.836	1921.761	843.455	3223.988	564.310
518	0.518	0.00016	1165.875	1139.792	2600.931	657.180	4327.813	5317.883
519	0.519	0.00013	709.556	782.204	1890.140	1417.276	4176.452	909.418
520	0.520	0.00012	455.771	1023.972	2841.105	601.154	4896.400	2350.992
521	0.521	0.00017	2411.810	761.401	3410.707	1170.153	--undefined--	--undefined--
522	0.522	0.00017	959.280	491.487	2959.403	939.377	4310.810	2183.343
523	0.523	0.00014	741.691	1233.497	2588.588	907.294	3820.690	1107.065
524	0.524	0.00017	615.691	921.896	2168.119	768.790	3954.639	1061.570
525	0.525	0.00017	1012.015	1686.367	2837.266	866.954	--undefined--	--undefined--
526	0.526	0.00010	1746.835	925.122	2874.987	517.670	--undefined--	--undefined--
527	0.527	0.00015	715.095	714.241	2198.003	766.623	4343.279	1022.372
528	0.528	0.00015	236.034	1615.420	2754.563	781.834	4421.598	1814.243
529	0.529	0.00014	2344.867	497.381	3339.901	546.626	--undefined--	--undefined--
530	0.530	0.00017	870.986	470.441	2909.553	769.276	4513.890	1542.675
531	0.531	0.00017	216.860	1774.333	2646.760	668.166	3721.106	902.061
532	0.532	0.00019	674.366	1553.510	2286.815	837.069	3793.918	1066.258
533	0.533	0.00019	1083.838	1242.492	2866.590	598.915	--undefined--	--undefined--
534	0.534	0.00024	1877.680	1059.107	2946.362	564.153	--undefined--	--undefined--
535	0.535	0.00024	672.345	975.990	2098.333	758.253	4374.901	1979.997
536	0.536	0.00020	325.972	2032.628	2806.613	928.471	--undefined--	--undefined--
537	0.537	0.00033	2254.572	960.370	3121.406	1078.204	--undefined--	--undefined--
538	0.538	0.00033	850.738	784.378	2647.207	968.638	4346.655	1529.588
539	0.539	0.00023	2848.557	743.954	4908.937	4870.414	--undefined--	--undefined--
540	0.540	0.00036	2331.995	695.012	3571.012	768.669	--undefined--	--undefined--
541	0.541	0.00036	843.121	894.329	2759.100	518.279	--undefined--	--undefined--
542	0.542	0.00028	1898.753	1065.215	2972.006	552.669	--undefined--	--undefined--
543	0.543	0.00034	725.762	1262.681	2155.612	739.857	4957.381	2836.172
544	0.544	0.00034	2774.049	1139.436	3934.883	2836.858	--undefined--	--undefined--
545	0.545	0.00039	2325.301	997.198	3340.370	1255.085	--undefined--	--undefined--
546	0.546	0.00039	934.140	1101.802	2648.075	930.621	4884.277	2284.126
547	0.547	0.00021	2837.268	592.990	--undefined--	--undefined--	--undefined--	--undefined--
548	0.548	0.00033	109.291	1748.507	2278.045	778.496	3787.371	908.945
549	0.549	0.00033	815.807	886.944	2729.079	517.277	4606.024	1811.693
550	0.550	0.00037	1697.265	1378.632	2926.634	689.438	--undefined--	--undefined--
551	0.551	0.00037	681.144	1018.729	2030.789	789.763	4453.628	875.861
552	0.552	0.00029	506.395	1330.839	2733.223	892.826	4242.477	1679.075
553	0.553	0.00029	2091.424	1177.362	2888.273	793.522	--undefined--	--undefined--
554	0.554	0.00023	893.482	624.085	2736.072	504.855	4930.592	1568.785
555	0.555	0.00022	716.866	1539.257	2823.748	768.401	3400.003	3507.613
556	0.556	0.00023	599.935	846.463	2058.947	658.147	4287.820	1764.839
557	0.557	0.00023	601.216	1427.225	2739.651	897.151	--undefined--	--undefined--
558	0.558	0.00021	795.067	1784.975	2708.871	1076.527	--undefined--	--undefined--
559	0.559	0.00021	985.402	847.281	2792.066	874.672	4184.291	1135.889
560	0.560	0.00019	607.120	1138.822	2910.861	620.242	--undefined--	--undefined--
561	0.561	0.00019	1182.646	1064.520	4275.912	1356.389	--undefined--	--undefined--
562	0.562	0.00008	1028.537	1583.767	2887.826	619.406	--undefined--	--undefined--
563	0.563	0.00012	721.327	1015.995	2743.808	982.069	4867.926	1425.314
564	0.564	0.00012	904.007	473.595	2774.594	1090.416	4221.480	1031.114
565	0.565	0.00012	708.340	984.082	2751.961	864.921	4417.168	4108.022
566	0.566	0.00012	553.749	681.154	1720.686	713.423	4639.673	461.295
567	0.567	0.00008	575.913	841.074	2655.881	1015.743	5002.309	2021.105
568	0.568	0.00010	553.553	528.680	2875.293	1223.843	4758.378	1055.198
569	0.569	0.00010	753.564	462.861	2899.447	844.311	3990.050	1352.637
570	0.570	0.00011	1059.019	839.911	2613.459	822.208	4402.006	3056.183
571	0.571	0.00011	1173.870	938.459	3390.625	1270.618	--undefined--	--undefined--
572	0.572	0.00010	551.455	562.781	2801.065	808.862	4576.672	2174.654
573	0.573	0.00013	222.601	1754.558	1149.182	1190.004	4285.666	1300.724
574	0.574	0.00013	1195.817	1504.562	2941.163	631.095	--undefined--	--undefined--
575	0.575	0.00017	600.197	524.983	2586.673	1665.046	4699.477	1374.542
576	0.576	0.00017	754.718	489.473	3034.357	960.408	4692.604	1551.034
577	0.577	0.00016	947.567	559.545	2554.973	1321.890	3854.536	784.686
578	0.578	0.00016	991.054	706.733	2521.751	1384.341	4496.294	2083.169
579	0.579	0.00018	742.458	1035.623	3196.195	1053.584	--undefined--	--undefined--
580	0.580	0.00025	591.769	1032.910	1734.703	1683.195	4147.048	1511.536
581	0.581	0.00028	561.655	704.789	3013.203	457.560	--undefined--	--undefined--
582	0.582	0.00040	895.305	824.598	3175.285	704.620	--undefined--	--undefined--
583	0.583	0.00040	621.396	1059.163	2863.484	1035.345	--undefined--	--undefined--
584	0.584	0.00070	767.913	1159.765	2929.240	1093.781	--undefined--	--undefined--
585	0.585	0.00070	775.971	698.824	2546.133	1020.378	3756.100	893.651
586	0.586	0.00092	889.606	799.303	2778.773	674.664	3965.021	1192.220
587	0.587	0.00092	818.725	450.365	2849.406	709.057	4212.520	710.645
588	0.588	0.00113	668.007	1162.867	2825.390	670.490	4079.182	1082.846
589	0.589	0.00113	609.048	523.951	2481.025	799.563	4088.501	1258.730
590	0.590	0.00177	567.310	1175.264	2689.921	884.302	3918.990	902.886
591	0.591	0.00294	545.782	548.492	2240.588	779.532	4336.627	762.695
592	0.592	0.00294	551.947	968.942	2627.342	1013.599	4003.231	1187.573
593	0.593	0.00367	526.449	549.605	2411.204	1004.876	4188.518	954.726
594	0.594	0.00367	554.921	628.264	2570.629	670.760	4342.535	988.847
595	0.595	0.00935	519.379	423.904	2594.458	933.169	4320.877	1017.121
596	0.596	0.00935	510.570	782.642	2622.868	591.970	4513.739	442.875
597	0.597	0.01029	538.004	668.417	2593.710	923.883	4057.000	698.298
598	0.598	0.01057	2562.332	936.337	4281.718	378.837	--undefined--	--undefined--
599	0.599	0.02002	495.108	1269.217	2666.068	933.565	4060.172	459.528
600	0.600	0.02002	2368.661	1005.237	4223.192	428.301	--undefined--	--undefined--
601	0.601	0.01518	546.012	1238.344	2711.881	874.931	4028.481	462.421
602	0.602	0.01518	2312.939	858.198	4194.159	408.610	--undefined--	--undefined--
603	0.603	0.01600	2415.571	988.812	3982.530	833.946	--undefined--	--undefined--
604	0.604	0.01600	914.645	3684.810	2334.179	918.231	4195.704	489.533
605	0.605	0.01020	2312.378	607.222	3655.200	863.017	--undefined--	--undefined--
606	0.606	0.01020	1506.491	1468.032	2752.388	1069.813	4047.729	542.545
607	0.607	0.01447	2272.460	408.927	4208.728	1338.659	--undefined--	--undefined--
608	0.608	0.01447	1377.009	2177.877	2852.951	994.762	4049.692	638.133
609	0.609	0.01114	2262.255	548.640	4018.854	569.010	--undefined--	--undefined--
610	0.610	0.01114	2865.688	850.237	4031.653	701.533	--undefined--	--undefined--
611	0.611	0.01107	2491.330	625.408	3975.028	668.601	--undefined--	--undefined--
612	0.612	0.01350	2818.866	665.898	3975.184	695.963	--undefined--	--undefined--
613	0.613	0.01350	2539.768	616.065	3844.631	630.261	--undefined--	--undefined--
614	0.614	0.00848	2810.975	911.704	3998.951	731.745	--undefined--	--undefined--
615	0.615	0.00848	444.189	2184.596	2657.393	755.000	3817.865	478.013
616	0.616	0.01246	793.312	2117.170	2811.379	1372.722	4011.227	997.177
617	0.617	0.01246	618.952	1993.264	2641.107	947.153	3861.168	608.844
618	0.618	0.01447	1220.409	961.672	3161.294	2518.294	3772.017	1109.609
619	0.619	0.01447	2327.831	1105.548	3869.050	571.302	--undefined--	--undefined--
620	0.620	0.01060	1500.675	835.330	3420.181	696.038	--undefined--	--undefined--
621	0.621	0.01060	2082.020	4242.348	2122.702	1922.442	3930.736	815.846
622	0.622	0.00905	2238.174	409.521	4048.660	814.691	--undefined--	--undefined--
623	0.623	0.00905	1403.878	1755.491	2785.298	942.264	3963.856	722.504
624	0.624	0.01313	1469.658	2690.130	2485.569	618.433	3761.400	552.606
625	0.625	0.01313	2804.893	682.053	3938.257	682.544	--undefined--	--undefined--
626	0.626	0.01101	1975.767	978.480	3101.189	773.937	--undefined--	--undefined--
627	0.627	0.01099	974.846	1314.664	2877.842	954.295	3986.281	741.804
628	0.628	0.01099	1683.505	1472.214	3103.763	1115.835	--undefined--	--undefined--
629	0.629	0.00712	1038.884	686.070	3643.230	701.256	--undefined--	--undefined--
630	0.630	0.00712	744.086	2211.111	2190.940	1726.288	4317.609	844.090
631	0.631	0.01095	718.201	795.595	2222.798	1084.715	5086.251	1184.347
632	0.632	0.01095	947.350	1191.845	2775.840	792.531	3920.022	559.681
633	0.633	0.00753	1066.770	554.926	2161.630	686.083	4013.120	747.340
634	0.634	0.00753	686.315	1233.106	2837.112	1044.304	3980.091	798.372
635	0.635	0.00314	1040.399	756.247	2646.089	634.877	--undefined--	--undefined--
636	0.636	0.01619	1032.835	456.998	3451.709	1450.515	4187.697	2041.924
637	0.637	0.01619	968.066	1652.258	2532.196	1625.326	3990.221	1025.005
638	0.638	0.00795	607.831	636.090	2510.716	1619.410	3655.273	2170.626
639	0.639	0.00795	914.207	678.037	3252.860	2154.033	3946.537	573.796
640	0.640	0.00999	1230.676	756.007	2372.460	1451.299	4076.207	1203.440
641	0.641	0.00999	778.272	1249.431	2411.659	1362.432	3940.420	839.520
642	0.642	0.00669	989.041	741.092	2246.451	988.186	4030.520	366.118
643	0.643	0.00966	799.892	689.141	2343.288	639.578	4268.747	849.230
644	0.644	0.00966	864.844	998.392	2193.278	927.246	3718.319	763.243
645	0.645	0.01732	771.016	949.220	2005.852	785.658	4097.254	1814.923
646	0.646	0.01732	756.911	1534.022	2003.510	1312.664	4185.645	583.522
647	0.647	0.00694	658.367	1025.241	2608.427	651.583	4638.043	1251.151
648	0.648	0.01647	1199.281	1469.666	2494.155	1547.049	4644.108	2740.432
649	0.649	0.01647	1022.116	527.481	2055.418	419.988	3952.912	855.983
650	0.650	0.02673	637.098	958.684	2030.666	554.124	4119.188	1001.096
651	0.651	0.02673	800.080	1762.624	2480.583	614.772	4159.414	715.562
652	0.652	0.00691	919.179	1327.040	2447.551	450.575	4389.149	1404.109
653	0.653	0.03325	1177.679	1992.726	2308.829	1686.037	4344.914	2207.384
654	0.654	0.03325	1112.743	603.430	2095.910	639.539	3784.911	606.073
655	0.655	0.02252	321.885	2161.461	1952.623	505.668	4244.752	568.326
656	0.656	0.02252	2493.879	650.896	4106.975	778.127	--undefined--	--undefined--
657	0.657	0.00621	151.585	2137.820	2480.369	534.574	--undefined--	--undefined--
658	0.658	0.03918	1115.210	1577.245	2288.495	1321.424	4010.884	1410.196
659	0.659	0.03918	1152.945	823.166	2208.171	887.400	3705.089	865.551
660	0.660	0.02804	1702.631	946.773	2318.179	1086.284	--undefined--	--undefined--
661	0.661	0.02804	2327.334	695.159	4062.927	732.682	--undefined--	--undefined--
662	0.662	0.00778	2505.549	591.409	3328.608	2744.269	--undefined--	--undefined--
663	0.663	0.03753	1315.702	1630.915	2277.059	1585.833	4442.914	2046.841
664	0.664	0.03753	1231.049	692.850	2276.330	758.123	3722.453	759.948
665	0.665	0.02887	1363.731	681.656	2190.732	598.532	3614.605	1027.698
666	0.666	0.02887	1166.392	1497.110	2281.205	776.105	4093.309	742.206
667	0.667	0.00534	876.403	659.591	2147.765	553.708	4085.041	1372.337
668	0.668	0.01517	1310.306	1131.350	2100.393	1549.833	4464.186	1198.669
669	0.669	0.01517	1311.237	1027.648	2089.378	1726.811	4100.852	1051.219
670	0.670	0.02821	2229.031	2570.916	3668.310	926.728	--undefined--	--undefined--
671	0.671	0.02821	1211.607	1029.838	2070.530	1112.519	4555.052	669.489
672	0.672	0.00519	1158.500	560.392	2141.475	538.324	--undefined--	--undefined--
673	0.673	0.01952	1479.699	1011.535	2012.359	1970.067	5037.356	1523.510
674	0.674	0.01952	1966.579	973.341	4038.658	544.330	--undefined--	--undefined--
675	0.675	0.02287	1855.558	768.886	4069.226	1069.383	--undefined--	--undefined--
676	0.676	0.02287	1023.575	1216.626	2103.696	975.976	4575.577	1295.858
677	0.677	0.00970	1129.646	695.998	2165.417	595.553	3939.227	802.353
678	0.678	0.02059	2263.970	428.674	3794.237	1113.429	--undefined--	--undefined--
679	0.679	0.02059	1279.610	1202.788	2290.166	1418.313	4204.531	950.820
680	0.680	0.00352	1127.680	731.104	2010.340	614.018	3850.384	1143.295
681	0.681	0.01518	1235.806	737.008	2174.770	825.709	4760.574	842.976
682	0.682	0.01518	518.242	3018.272	2128.560	1032.929	3989.999	931.617
683	0.683	0.02358	1684.941	538.192	2753.548	864.040	4246.745	1271.678
684	0.684	0.02358	1000.020	1125.729	2136.609	942.424	4461.912	1196.382
685	0.685	0.00573	1120.716	742.323	2153.341	625.507	4462.547	1657.263
686	0.686	0.02338	2320.101	438.932	4192.235	1500.277	--undefined--	--undefined--
687	0.687	0.02338	1147.695	1138.702	2086.456	1612.084	4229.968	751.874
688	0.688	0.00387	1111.860	544.715	1977.092	472.764	3977.909	707.260
689	0.689	0.02214	1300.175	859.405	2008.597	2071.489	4267.088	967.703
690	0.690	0.02214	2458.833	999.430	4029.738	721.997	--undefined--	--undefined--
691	0.691	0.00693	1543.001	981.627	2475.175	1135.883	3925.908	1253.062
692	0.692	0.01797	945.698	1061.506	2094.540	956.564	4082.047	1193.341
693	0.693	0.01797	1112.195	731.106	2202.998	674.198	4539.945	1262.538
694	0.694	0.01767	280.946	1622.866	2466.182	479.442	4886.771	1471.675
695	0.695	0.01767	1102.484	719.741	2094.279	936.497	4678.752	765.268
696	0.696	0.00461	1161.529	860.030	1919.752	989.195	4724.776	1771.065
697	0.697	0.01754	1143.416	594.813	3758.123	1388.381	--undefined--	--undefined--
698	0.698	0.01754	795.988	1490.213	1918.306	1008.221	4107.255	546.216
699	0.699	0.00295	1343.904	1053.486	2396.254	1559.862	4713.562	3092.277
700	0.700	0.00917	1155.367	706.425	2325.541	1629.825	4887.538	1775.048
701	0.701	0.00917	2399.809	1077.797	4197.121	1011.619	--undefined--	--undefined--
702	0.702	0.00244	1299.887	789.108	2132.840	720.824	4666.480	849.825
703	0.703	0.00908	967.732	1330.974	2072.626	1502.965	4807.962	2211.692
704	0.704	0.00908	1236.057	1287.759	2047.788	1244.155	4353.670	814.943
705	0.705	0.00633	1673.763	455.230	3829.350	1101.896	--undefined--	--undefined--
706	0.706	0.00633	802.935	1136.270	1935.709	1040.484	4441.834	1258.158
707	0.707	0.00617	1138.133	1624.364	1613.123	1199.933	4171.118	570.070
708	0.708	0.00778	1631.618	894.096	3110.531	1079.727	--undefined--	--undefined--
709	0.709	0.00778	857.151	724.972	1914.995	604.869	4760.660	872.997
710	0.710	0.00232	1093.619	1146.563	2082.334	984.366	--undefined--	--undefined--
711	0.711	0.00893	664.586	1055.992	3145.917	914.078	--undefined--	--undefined--
712	0.712	0.00893	996.710	556.257	1872.358	585.692	4446.906	444.792
713	0.713	0.00256	1209.769	700.547	2278.245	749.281	--undefined--	--undefined--
714	0.714	0.00878	1005.505	520.184	3623.352	1747.193	--undefined--	--undefined--
715	0.715	0.00878	912.680	607.120	1893.190	551.930	4462.741	557.935
716	0.716	0.00168	1080.930	532.670	2055.172	563.290	4280.448	1912.888
717	0.717	0.00844	1046.940	326.974	4615.352	813.869	--undefined--	--undefined--
718	0.718	0.00844	821.887	928.184	1946.668	744.106	4294.487	672.105
719	0.719	0.00142	1050.707	685.302	1981.786	584.058	--undefined--	--undefined--
720	0.720	0.00784	803.949	662.144	1787.024	2456.937	3783.652	817.361
721	0.721	0.00784	700.413	1399.196	2045.545	936.977	4213.500	826.139
722	0.722	0.00097	996.607	599.400	1920.633	424.391	4809.663	895.060
723	0.723	0.00484	880.042	754.953	2360.828	1560.132	4690.763	1883.871
724	0.724	0.00484	143.488	1973.522	2102.346	918.125	4191.328	832.480
725	0.725	0.00104	1152.845	590.618	2057.270	472.013	4727.710	1167.580
726	0.726	0.00545	1243.945	921.481	2944.738	2571.694	--undefined--	--undefined--
727	0.727	0.00545	2371.368	948.404	4168.200	761.810	--undefined--	--undefined--
728	0.728	0.00116	1054.650	604.019	1984.844	424.266	4340.226	670.715
729	0.729	0.00470	1097.471	898.974	1792.893	1912.722	--undefined--	--undefined--
730	0.730	0.00470	478.456	968.211	2454.834	1013.419	4196.712	772.830
731	0.731	0.00100	1087.033	610.345	2034.452	471.982	4211.645	1334.809
732	0.732	0.00485	1031.536	1213.518	1484.805	1410.138	4596.807	1562.855
733	0.733	0.00485	487.467	668.622	2557.815	935.492	4298.418	801.749
734	0.734	0.00116	1076.951	788.858	2088.688	547.339	4710.221	1235.429
735	0.735	0.00454	1022.653	817.773	1645.741	1287.828	4779.852	949.780
736	0.736	0.00454	571.143	611.649	2341.555	1625.744	4138.001	879.925
737	0.737	0.00122	1002.836	742.441	1968.481	586.754	4335.214	1932.359
738	0.738	0.00495	1185.776	737.647	3871.254	1192.595	--undefined--	--undefined--
739	0.739	0.00495	664.026	1037.918	1867.496	1304.483	4167.780	947.003
740	0.740	0.00097	1057.170	488.719	1984.085	442.338	--undefined--	--undefined--
741	0.741	0.00348	576.182	683.599	1590.876	1178.778	4353.978	746.611
742	0.742	0.00348	797.304	747.612	1826.052	700.437	4713.429	780.970
743	0.743	0.00182	1027.330	542.041	1924.122	506.015	3542.273	3255.315
744	0.744	0.00474	850.339	666.149	3384.330	1102.741	--undefined--	--undefined--
745	0.745	0.00474	976.799	528.978	1885.597	641.252	4609.839	737.206
746	0.746	0.00127	913.562	1039.336	1832.654	818.948	5094.523	2572.624
747	0.747	0.00356	591.515	808.842	1869.771	1066.080	3886.841	980.623
748	0.748	0.00356	797.400	752.049	1777.293	637.369	4696.241	774.574
749	0.749	0.00130	827.131	1057.998	1915.200	1014.383	3778.764	1430.344
750	0.750	0.00113	840.784	1118.352	1825.846	870.255	--undefined--	--undefined--
751	0.751	0.00247	610.173	1494.113	1505.035	1217.477	4443.454	1026.105
752	0.752	0.00247	902.283	467.061	2221.914	1602.772	3914.867	535.843
753	0.753	0.00088	1471.135	883.273	2064.784	1510.481	4076.171	973.225
754	0.754	0.00154	805.757	644.501	3312.920	892.502	--undefined--	--undefined--
755	0.755	0.00154	672.429	1088.152	1640.860	1265.114	4214.934	537.767
756	0.756	0.00056	946.688	979.791	1978.241	864.232	3949.640	1368.704
757	0.757	0.00126	847.717	684.813	3078.064	1153.111	--undefined--	--undefined--
758	0.758	0.00148	791.405	1309.003	1589.445	957.788	4628.482	784.024
759	0.759	0.00148	927.855	502.176	1841.904	482.139	4130.508	1180.817
760	0.760	0.00120	1018.544	671.198	4486.118	1843.090	--undefined--	--undefined--
761	0.761	0.00120	775.310	646.881	1780.568	529.214	4800.966	762.684
762	0.762	0.00114	696.393	1097.188	1818.904	1202.572	4269.479	1750.600
763	0.763	0.00042	623.670	1698.522	1863.421	733.773	--undefined--	--undefined--
764	0.764	0.00136	985.047	1827.244	1923.696	2808.289	4896.051	2812.586
765	0.765	0.00136	738.741	453.973	1994.030	1233.032	4120.462	690.010
766	0.766	0.00067	831.047	1276.723	1850.555	1010.342	3755.876	2401.668
767	0.767	0.00137	666.611	802.986	2405.646	1461.360	--undefined--	--undefined--
768	0.768	0.00158	830.849	810.951	1772.261	766.262	4601.369	944.421
769	0.769	0.00158	971.090	575.591	1856.443	746.876	3955.298	1772.303
770	0.770	0.00122	1230.737	630.677	4754.528	1246.061	--undefined--	--undefined--
771	0.771	0.00135	692.293	715.882	1772.352	546.895	4407.149	744.674
772	0.772	0.00135	853.143	1019.837	1021.438	3937.970	3704.610	1068.725
773	0.773	0.00067	1072.453	491.357	1930.725	543.161	3943.261	971.053
774	0.774	0.00151	815.787	461.460	2659.438	966.135	--undefined--	--undefined--
775	0.775	0.00151	711.616	694.129	1747.219	602.071	4191.646	1226.984
776	0.776	0.00060	1076.702	955.134	2051.084	861.328	--undefined--	--undefined--
777	0.777	0.00106	463.873	1038.717	1304.493	853.514	4276.948	836.995
778	0.778	0.00124	810.192	706.501	1847.865	583.486	4773.647	1283.125
779	0.779	0.00124	922.538	719.688	4066.238	1260.125	--undefined--	--undefined--
780	0.780	0.00037	1220.081	563.026	2194.736	806.595	--undefined--	--undefined--
781	0.781	0.00143	1354.462	637.665	2570.046	1061.867	--undefined--	--undefined--
782	0.782	0.00143	808.536	937.334	1860.172	832.205	3904.986	1757.365
783	0.783	0.00041	1235.762	760.609	2253.643	738.052	--undefined--	--undefined--
784	0.784	0.00088	515.745	502.918	1938.775	433.388	5141.946	798.323
785	0.785	0.00162	761.573	740.905	1863.729	556.339	4642.796	2199.541
786	0.786	0.00162	563.602	476.220	2276.118	1098.828	3810.231	3110.151
787	0.787	0.00057	1079.795	564.044	1936.434	621.541	3053.606	1276.619
788	0.788	0.00178	2294.540	477.189	4499.894	1616.078	--undefined--	--undefined--
789	0.789	0.00178	850.394	685.411	1833.874	584.883	4008.670	1540.025
790	0.790	0.00150	987.567	523.235	1903.747	667.355	3100.672	1219.603
791	0.791	0.00057	699.980	978.861	1763.934	924.701	3027.262	1987.940
792	0.792	0.00194	1062.880	988.269	2103.679	1037.409	4616.022	1839.335
793	0.793	0.00194	950.103	464.772	2009.853	514.190	4208.567	1623.507
794	0.794	0.00054	1063.004	704.386	1984.802	716.109	2597.851	3719.065
795	0.795	0.00174	262.144	988.498	2105.480	1187.076	4484.951	1279.916
796	0.796	0.00174	804.339	653.210	1818.047	512.580	4342.104	1769.711
797	0.797	0.00144	565.361	602.130	1967.588	951.555	4550.288	1284.622
798	0.798	0.00047	1008.347	627.290	1879.844	667.377	2974.743	1258.077
799	0.799	0.00186	406.476	879.430	2286.015	335.551	--undefined--	--undefined--
800	0.800	0.00186	910.199	678.535	1862.149	585.348	4469.233	2177.878
801	0.801	0.00176	1102.299	624.105	2163.470	776.857	--undefined--	--undefined--
802	0.802	0.00049	1062.127	1122.365	2125.689	784.585	--undefined--	--undefined--
803	0.803	0.00175	1226.329	578.119	2144.494	546.209	4446.254	1462.621
804	0.804	0.00175	1038.702	799.450	2018.332	757.528	3613.152	2972.813
805	0.805	0.00053	1313.102	593.264	2285.612	543.331	--undefined--	--undefined--
806	0.806	0.00053	1382.830	1442.669	2259.467	469.643	--undefined--	--undefined--
807	0.807	0.00170	1068.574	686.117	2030.296	691.031	4354.034	2148.785
808	0.808	0.00170	1494.838	1075.915	2022.897	3815.542	2438.330	823.588
809	0.809	0.00054	1185.450	613.355	2100.035	552.782	--undefined--	--undefined--
810	0.810	0.00077	780.156	1589.537	2142.326	600.178	--undefined--	--undefined--
811	0.811	0.00180	828.910	833.696	1893.734	659.132	--undefined--	--undefined--
812	0.812	0.00180	575.867	1230.929	2407.507	455.850	--undefined--	--undefined--
813	0.813	0.00052	1078.370	443.124	1970.262	396.661	--undefined--	--undefined--
814	0.814	0.00107	1500.088	1116.964	2411.926	1277.044	--undefined--	--undefined--
815	0.815	0.00118	787.206	773.813	1854.171	606.019	5224.264	2528.116
816	0.816	0.00118	269.780	1527.648	2185.855	760.326	3881.887	3104.308
817	0.817	0.00033	1191.918	594.104	2097.667	579.811	--undefined--	--undefined--
818	0.818	0.00084	1157.278	923.206	2045.131	684.583	--undefined--	--undefined--
819	0.819	0.00084	766.793	718.477	1807.855	565.677	4669.523	1255.866
820	0.820	0.00066	603.206	674.255	1920.919	506.275	3463.800	1079.821
821	0.821	0.00019	1325.682	479.782	2301.301	731.899	--undefined--	--undefined--
822	0.822	0.00099	1269.613	435.483	2164.849	519.487	--undefined--	--undefined--
823	0.823	0.00099	723.071	730.700	1768.946	557.953	4777.111	900.130
824	0.824	0.00088	1301.486	1454.891	2309.970	1610.246	--undefined--	--undefined--
825	0.825	0.00026	1294.629	446.223	2252.548	659.971	5054.004	1002.719
826	0.826	0.00062	1192.469	395.536	2053.069	556.109	3898.316	1128.999
827	0.827	0.00082	672.163	655.496	1738.839	527.274	4769.866	1089.805
828	0.828	0.00082	1002.385	1175.857	2717.740	1202.331	--undefined--	--undefined--
829	0.829	0.00020	1256.646	494.880	2225.367	595.687	--undefined--	--undefined--
830	0.830	0.00067	1309.049	734.869	2213.373	772.661	--undefined--	--undefined--
831	0.831	0.00075	661.441	750.418	1736.680	635.656	4811.146	1049.906
832	0.832	0.00075	862.205	677.484	2771.233	1184.453	--undefined--	--undefined--
833	0.833	0.00024	1003.769	533.858	1885.868	556.764	3199.894	2107.614
834	0.834	0.00014	1150.884	602.624	2204.626	905.296	--undefined--	--undefined--
835	0.835	0.00041	732.553	2564.359	1217.054	1112.813	4330.105	941.702
836	0.836	0.00041	873.562	749.258	1620.832	943.511	4165.944	486.084
837	0.837	0.00010	933.196	544.399	1825.751	477.727	5055.935	1977.854
838	0.838	0.00007	1009.856	382.723	1810.230	403.151	--undefined--	--undefined--
839	0.839	0.00048	859.777	486.917	2218.274	1269.185	4053.538	1234.908
840	0.840	0.00048	924.898	643.594	1821.676	623.567	4394.145	1039.511
841	0.841	0.00015	732.670	972.411	1698.655	698.329	4856.675	825.187
842	0.842	0.00009	1074.520	510.941	1977.204	580.531	4497.034	2607.364
843	0.843	0.00032	829.595	377.553	4406.627	1074.186	--undefined--	--undefined--
844	0.844	0.00033	912.781	657.335	1809.262	578.399	4506.657	769.991
845	0.845	0.00033	846.025	794.667	2487.663	870.703	4369.196	792.972
846	0.846	0.00004	764.643	759.504	1797.217	500.867	4396.939	783.463
847	0.847	0.00023	536.318	734.457	1614.016	594.067	4346.927	879.905
848	0.848	0.00024	738.226	784.904	1747.136	590.616	4740.695	780.955
849	0.849	0.00024	505.069	583.591	1975.556	943.774	4112.880	587.175
850	0.850	0.00003	1313.935	729.674	2098.027	830.382	4545.990	2441.668
851	0.851	0.00004	673.319	865.470	1763.816	655.329	3216.267	1825.047
852	0.852	0.00021	975.718	840.367	1908.094	1525.755	4180.947	1446.994
853	0.853	0.00021	955.706	521.856	1832.349	544.784	4468.501	1204.014
854	0.854	0.00009	691.235	797.568	1773.887	507.960	4945.601	645.168
855	0.855	0.00003	1365.146	449.633	2286.424	712.889	--undefined--	--undefined--
856	0.856	0.00021	448.672	1488.597	1356.478	1036.372	5177.379	1927.188
857	0.857	0.00021	1011.366	562.951	1858.211	620.817	4371.346	493.225
858	0.858	0.00014	1133.035	1224.527	4791.824	1836.885	--undefined--	--undefined--
859	0.859	0.00003	720.713	1308.071	1788.761	806.907	4309.830	896.456
860	0.860	0.00004	1787.337	1551.906	2354.165	1634.779	--undefined--	--undefined--
861	0.861	0.00020	706.169	792.188	1786.113	670.177	4344.835	1145.751
862	0.862	0.00020	610.697	742.724	1594.887	777.621	4052.083	1170.262
863	0.863	0.00003	638.691	758.327	1881.381	427.742	--undefined--	--undefined--
864	0.864	0.00001	684.097	815.782	1742.579	476.778	--undefined--	--undefined--
865	0.865	0.00020	509.611	879.241	1350.353	592.050	4915.492	429.973
866	0.866	0.00020	888.356	535.741	1814.115	480.878	3995.686	974.523
867	0.867	0.00012	1054.758	709.117	1660.413	2083.831	4671.133	1195.932
868	0.868	0.00002	721.060	674.287	1811.043	422.672	4105.852	933.847
869	0.869	0.00007	1469.738	1210.779	4828.673	989.662	--undefined--	--undefined--
870	0.870	0.00020	641.755	870.757	1702.116	780.191	4334.152	1299.243
871	0.871	0.00020	593.530	648.399	1526.523	585.332	3847.892	633.599
872	0.872	0.00005	800.675	1755.168	1820.135	705.955	--undefined--	--undefined--
873	0.873	0.00002	638.996	674.647	1663.796	405.614	3749.241	1496.109
874	0.874	0.00014	558.255	959.025	1440.849	721.280	4948.871	655.340
875	0.875	0.00014	904.627	409.659	1793.024	385.961	4303.540	1014.211
876	0.876	0.00008	966.208	753.553	1533.704	996.311	4536.633	689.671
877	0.877	0.00002	601.897	574.152	1661.068	450.839	4040.009	873.577
878	0.878	0.00002	1071.788	1022.134	2045.770	936.644	--undefined--	--undefined--
879	0.879	0.00011	1191.812	844.016	4142.664	1287.012	--undefined--	--undefined--
880	0.880	0.00011	861.605	573.522	1699.984	507.332	4007.662	938.314
881	0.881	0.00005	1019.474	1242.422	3223.230	1540.178	--undefined--	--undefined--
882	0.882	0.00002	1026.744	439.447	1859.988	502.659	4290.667	1352.500
883	0.883	0.00007	760.745	1231.852	1775.643	799.792	4976.544	2459.041
884	0.884	0.00007	590.277	701.913	1576.492	572.302	4525.335	881.044
885	0.885	0.00005	680.781	932.102	1746.279	739.852	4297.366	1245.753
886	0.886	0.00001	1252.880	1128.330	4485.051	1186.587	--undefined--	--undefined--
887	0.887	0.00001	587.600	960.293	1670.534	846.817	--undefined--	--undefined--
888	0.888	0.00006	919.012	927.445	1816.433	1325.413	--undefined--	--undefined--
889	0.889	0.00006	979.525	509.839	1864.972	555.052	4065.333	2084.386
890	0.890	0.00004	749.923	550.960	2152.282	740.255	4683.870	1314.128
891	0.891	0.00001	654.075	655.114	1980.531	845.992	4397.920	1100.504
892	0.892	0.00001	104.173	1551.073	1858.706	668.437	--undefined--	--undefined--
893	0.893	0.00005	562.218	541.535	2364.524	2713.628	3556.408	1234.752
894	0.894	0.00005	913.458	347.183	1758.170	331.605	3875.108	814.159
895	0.895	0.00004	856.577	948.601	3720.872	1060.222	--undefined--	--undefined--
896	0.896	0.00001	1165.190	553.896	1972.942	1137.475	4096.686	2330.858
897	0.897	0.00003	1776.461	642.801	4555.844	2239.711	--undefined--	--undefined--
898	0.898	0.00005	540.837	657.390	1686.716	664.258	4786.002	1439.532
899	0.899	0.00005	738.497	1186.492	1757.906	1051.097	2768.407	2899.952
900	0.900	0.00002	453.726	665.923	1450.434	731.527	4563.185	1215.045
901	0.901	0.00001	654.971	1101.884	1613.556	920.083	3139.671	3684.563
902	0.902	0.00005	691.985	786.015	1713.188	546.682	--undefined--	--undefined--
903	0.903	0.00005	881.539	684.744	1805.535	578.810	--undefined--	--undefined--
904	0.904	0.00003	956.421	964.451	1714.392	1535.453	2245.519	1224.412
905	0.905	0.00001	928.684	1415.338	1566.134	1463.838	--undefined--	--undefined--
906	0.906	0.00001	1048.067	711.399	2036.375	664.384	--undefined--	--undefined--
907	0.907	0.00005	878.714	535.542	2065.783	802.874	--undefined--	--undefined--
908	0.908	0.00005	1173.331	674.619	2090.206	728.979	--undefined--	--undefined--
909	0.909	0.00003	1671.580	2850.490	1950.951	469.948	--undefined--	--undefined--
910	0.910	0.00001	1128.752	551.058	2155.143	1661.232	--undefined--	--undefined--
911	0.911	0.00001	1295.524	1046.829	1954.274	707.550	--undefined--	--undefined--
912	0.912	0.00005	445.995	601.954	2468.442	619.908	--undefined--	--undefined--
913	0.913	0.00005	977.073	428.627	1839.350	443.705	3625.320	2003.061
914	0.914	0.00003	489.717	927.550	1852.400	767.460	3429.628	1360.660
915	0.915	0.000009	1064.808	828.155	1425.143	1873.438	4494.025	1820.475
916	0.916	0.000007	818.928	1048.944	1733.941	559.569	3101.716	1675.905
917	0.917	0.00004	539.364	1237.955	2138.712	1264.233	--undefined--	--undefined--
918	0.918	0.00004	1104.439	925.891	2017.990	861.309	--undefined--	--undefined--
919	0.919	0.00003	1141.498	1160.391	2151.053	1025.047	--undefined--	--undefined--
920	0.920	0.000009	363.131	1001.886	1131.619	589.984	3221.983	1075.959
921	0.921	0.00002	1105.585	718.045	2049.842	606.947	--undefined--	--undefined--
922	0.922	0.00003	1006.384	1001.218	2039.539	841.574	--undefined--	--undefined--
923	0.923	0.00003	1212.854	673.556	2253.315	705.042	--undefined--	--undefined--
924	0.924	0.000008	1017.353	993.674	1928.849	723.799	--undefined--	--undefined--
925	0.925	0.000005	1012.917	648.738	2139.432	4577.372	--undefined--	--undefined--
926	0.926	0.00003	728.646	830.789	1698.222	688.348	--undefined--	--undefined--
927	0.927	0.00003	1110.504	571.105	2066.188	486.888	--undefined--	--undefined--
928	0.928	0.00002	1259.290	769.779	2256.171	720.803	--undefined--	--undefined--
929	0.929	0.000008	1125.994	715.628	2025.845	595.803	--undefined--	--undefined--
930	0.930	0.000002	854.858	1231.562	2189.380	1601.126	--undefined--	--undefined--
931	0.931	0.00002	855.781	562.387	1748.286	689.459	4198.404	1460.389
932	0.932	0.00002	1100.428	559.495	1992.480	486.328	--undefined--	--undefined--
933	0.933	0.00001	1238.197	729.844	2260.226	586.828	--undefined--	--undefined--
934	0.934	0.000005	1375.746	775.825	2255.313	809.598	--undefined--	--undefined--
935	0.935	0.000002	1080.004	1046.541	2296.615	798.543	--undefined--	--undefined--
936	0.936	0.00001	590.362	727.535	1762.797	896.033	4427.627	1246.647
937	0.937	0.00001	1062.100	484.462	1936.998	541.575	2719.350	4723.604
938	0.938	0.000007	860.711	1081.709	2008.668	939.672	2764.702	3160.210
939	0.939	0.000003	367.206	809.662	2372.033	1022.742	--undefined--	--undefined--
940	0.940	0.000003	516.051	768.117	1666.130	603.378	5152.545	2884.260
941	0.941	0.000007	925.233	1379.829	2154.517	5114.040	--undefined--	--undefined--
942	0.942	0.000007	1062.281	356.646	1855.333	432.321	3092.772	1229.315
943	0.943	0.000004	518.494	404.604	2170.164	720.415	--undefined--	--undefined--
944	0.944	0.000004	1706.477	691.511	1737.446	4664.941	--undefined--	--undefined--
945	0.945	0.000002	394.854	290.986	2047.262	932.132	4605.029	1395.362
946	0.946	0.000006	731.169	741.138	2541.388	1222.443	--undefined--	--undefined--
947	0.947	0.000006	1221.589	835.326	2046.958	856.297	--undefined--	--undefined--
948	0.948	0.000002	433.823	416.171	1365.243	563.555	5083.883	789.513
949	0.949	0.000003	1241.067	747.237	2077.134	668.669	--undefined--	--undefined--
950	0.950	0.000003	492.102	1723.144	1814.195	775.323	3903.039	1812.372
951	0.951	0.000005	432.659	669.913	1449.089	865.834	--undefined--	--undefined--
952	0.952	0.000005	1251.662	925.713	2391.663	1741.040	--undefined--	--undefined--
953	0.953	0.000001	412.709	1075.394	1279.529	1226.411	--undefined--	--undefined--
954	0.954	0.000001	412.510	417.015	1817.312	746.610	5158.821	1386.916
955	0.955	0.000003	577.042	729.227	2152.000	1346.787	4680.039	1865.272
956	0.956	0.000003	417.163	745.507	1300.983	774.171	4421.384	1372.762
957	0.957	0.000003	467.575	1026.039	1472.825	882.802	--undefined--	--undefined--
958	0.958	0.0000009	487.772	793.993	1543.732	726.597	--undefined--	--undefined--
959	0.959	0.0000009	576.970	603.300	2251.523	545.286	--undefined--	--undefined--
960	0.960	0.000001	903.606	745.837	1913.077	754.343	--undefined--	--undefined--
961	0.961	0.000002	458.759	415.413	1493.188	447.487	--undefined--	--undefined--
962	0.962	0.000002	790.464	339.436	--undefined--	--undefined--	--undefined--	--undefined--
963	0.963	0.0000005	889.939	753.691	1410.883	4449.342	--undefined--	--undefined--
964	0.964	0.0000009	965.690	1900.360	2114.900	648.799	--undefined--	--undefined--
965	0.965	0.000002	1093.665	1077.005	2571.186	1302.650	--undefined--	--undefined--
966	0.966	0.000002	458.294	648.815	1471.484	680.615	3469.054	2446.394
967	0.967	0.000002	1681.662	948.149	2275.142	1735.848	--undefined--	--undefined--
968	0.968	0.0000004	876.293	539.336	2176.398	2438.801	--undefined--	--undefined--
969	0.969	0.0000004	398.263	523.856	2052.325	1568.021	--undefined--	--undefined--
970	0.970	0.0000007	945.687	630.969	2478.632	660.050	--undefined--	--undefined--
971	0.971	0.0000010	459.133	518.057	1506.186	614.855	5210.473	1397.583
972	0.972	0.0000010	1502.311	1885.004	1589.988	974.783	3264.438	2378.921
973	0.973	0.0000003	916.297	493.601	4444.349	1332.328	--undefined--	--undefined--
974	0.974	0.0000003	425.967	642.237	1317.781	2000.881	4796.073	1968.815
975	0.975	0.0000004	1215.889	424.507	2081.900	505.714	5308.632	1304.784
976	0.976	0.0000009	697.315	654.533	2591.223	749.514	--undefined--	--undefined--
977	0.977	0.0000009	489.608	661.957	1627.982	581.837	4499.919	1068.775
978	0.978	0.0000003	484.761	534.308	1503.666	528.620	4808.843	2024.920
979	0.979	0.0000004	1006.348	2389.792	1976.861	1269.777	--undefined--	--undefined--
980	0.980	0.0000004	1925.243	512.199	2129.046	3595.892	--undefined--	--undefined--
981	0.981	0.0000006	499.347	667.489	1675.338	785.797	--undefined--	--undefined--
982	0.982	0.0000006	355.484	933.422	812.428	987.506	4874.689	663.461
983	0.983	0.0000003	1003.186	854.587	2493.440	1110.050	--undefined--	--undefined--
984	0.984	0.0000003	861.346	950.696	1867.646	721.555	--undefined--	--undefined--
985	0.985	0.0000003	469.313	883.697	1427.026	884.736	3418.818	2045.031
986	0.986	0.0000004	479.110	711.640	1553.701	715.050	4999.785	786.910
987	0.987	0.0000004	342.862	681.374	1918.631	600.162	3319.981	812.938
988	0.988	0.0000003	2091.092	779.260	5073.283	761.079	--undefined--	--undefined--
989	0.989	0.0000002	692.803	1383.291	2774.933	1413.149	--undefined--	--undefined--
990	0.990	0.0000003	427.601	487.515	2381.142	1578.593	--undefined--	--undefined--
991	0.991	0.0000004	1001.600	541.011	1963.237	488.022	--undefined--	--undefined--
992	0.992	0.0000004	429.275	698.470	1416.186	707.049	--undefined--	--undefined--
993	0.993	0.0000002	940.929	539.355	1849.065	737.466	3397.819	1522.893
994	0.994	0.0000002	826.048	744.819	1780.503	847.198	--undefined--	--undefined--
995	0.995	0.0000002	506.428	614.384	1581.381	553.221	4987.088	1238.744
996	0.996	0.0000003	1145.753	972.619	5020.317	946.367	--undefined--	--undefined--
997	0.997	0.0000003	500.290	605.225	1665.393	465.500	5159.825	947.663
998	0.998	0.0000003	1344.233	854.433	4030.458	1645.837	--undefined--	--undefined--
999	0.999	0.0000002	394.071	833.043	1756.895	1660.703	--undefined--	--undefined--
1000	1.000	0.0000002	274.069	1255.135	1306.381	782.696	3940.416	1471.118
1001	1.001	0.0000002	1315.489	2059.649	1862.871	729.257	--undefined--	--undefined--
1002	1.002	0.0000003	591.165	1032.619	1793.476	760.097	--undefined--	--undefined--
1003	1.003	0.0000003	1357.794	906.237	3144.295	2916.909	--undefined--	--undefined--
1004	1.004	0.0000001	301.962	1537.795	1418.016	1263.054	3925.124	1584.214
1005	1.005	0.00000007	783.134	876.607	4737.762	978.586	--undefined--	--undefined--
1006	1.006	0.00000009	1241.916	446.465	2165.393	401.858	--undefined--	--undefined--
1007	1.007	0.00000010	520.890	598.222	1801.697	509.981	--undefined--	--undefined--
1008	1.008	0.00000010	326.432	801.251	2092.416	386.298	--undefined--	--undefined--
1009	1.009	0.0000001	610.570	943.787	1774.775	558.137	--undefined--	--undefined--
1010	1.010	0.0000001	1608.205	1260.944	3191.899	2245.541	--undefined--	--undefined--
