frame	time(s)	intensity	F1(Hz)	B1(Hz)	F2(Hz)	B2(Hz)	F3(Hz)	B3(Hz)
1	0.001	0.000003	1044.147	945.721	1806.620	906.028	4392.768	879.208
2	0.002	0.000003	1026.218	535.326	1829.951	637.105	3942.261	457.746
3	0.003	0.000005	1192.729	469.299	4685.454	1001.817	--undefined--	--undefined--
4	0.004	0.000005	1085.454	647.173	1989.072	664.739	--undefined--	--undefined--
5	0.005	0.000005	723.006	951.776	1652.658	804.765	4868.898	640.371
6	0.006	0.000005	1136.488	2286.375	1348.234	950.381	4134.244	745.544
7	0.007	0.000005	992.204	933.169	2843.678	1412.630	4064.447	622.402
8	0.008	0.00002	1538.713	558.645	4354.663	799.018	--undefined--	--undefined--
9	0.009	0.00002	957.450	655.523	1877.980	527.128	4651.215	913.306
10	0.010	0.00003	1033.114	789.150	1916.312	911.794	4431.489	1361.286
11	0.011	0.00003	1366.685	690.780	1797.001	2485.274	4253.302	595.154
12	0.012	0.00002	972.748	669.463	1926.380	529.153	4351.711	525.585
13	0.013	0.00003	918.843	704.711	1902.324	596.800	4193.184	1796.093
14	0.014	0.00003	1049.119	483.845	1938.664	443.206	--undefined--	--undefined--
15	0.015	0.00002	1225.668	1477.574	1682.182	1405.956	5014.657	1373.190
16	0.016	0.00005	1242.706	1255.169	1894.487	1619.701	4385.612	853.737
17	0.017	0.00005	1114.825	519.822	1980.266	537.987	4604.644	857.367
18	0.018	0.00003	1729.707	805.798	4205.298	1182.466	--undefined--	--undefined--
19	0.019	0.00003	1250.025	402.092	4264.314	980.027	--undefined--	--undefined--
20	0.020	0.00003	1194.139	537.378	2113.816	544.499	--undefined--	--undefined--
21	0.021	0.00003	1268.340	671.332	1994.499	1163.161	4389.795	716.844
22	0.022	0.00004	991.364	534.329	1915.122	426.693	5101.776	903.210
23	0.023	0.00004	845.921	534.980	1737.400	356.329	4562.286	664.866
24	0.024	0.00003	1177.518	691.417	1945.818	1802.976	4340.984	788.493
25	0.025	0.00002	1056.076	810.053	2114.900	1122.086	4992.685	426.295
26	0.026	0.000009	874.361	1414.016	4091.914	680.667	--undefined--	--undefined--
27	0.027	0.00002	1874.017	795.435	3978.056	972.135	--undefined--	--undefined--
28	0.028	0.00002	1015.431	3493.910	1422.438	716.315	4460.485	579.883
29	0.029	0.00002	1842.595	1611.328	4386.051	766.097	--undefined--	--undefined--
30	0.030	0.00001	1393.090	429.510	2665.331	860.472	5079.711	781.216
31	0.031	0.00002	957.170	665.781	1908.748	616.312	4650.750	646.563
32	0.032	0.00002	2462.797	1671.420	4309.151	1022.311	--undefined--	--undefined--
33	0.033	0.00004	703.850	2140.431	1462.740	1039.060	4094.860	428.032
34	0.034	0.00008	814.879	1846.864	1560.008	938.938	4177.187	507.245
35	0.035	0.00008	1047.987	639.357	1847.773	710.589	4322.343	757.919
36	0.036	0.00007	419.378	434.574	1975.764	329.700	4524.336	636.342
37	0.037	0.00090	1139.705	409.801	2013.116	369.051	4949.447	826.660
38	0.038	0.00090	983.281	497.935	1863.659	494.329	4446.921	753.620
39	0.039	0.00051	1024.034	600.790	1811.488	648.131	4748.190	1009.642
40	0.040	0.00646	1130.441	1328.435	3499.964	938.561	--undefined--	--undefined--
41	0.041	0.00646	722.513	3570.389	1377.361	668.507	4371.848	780.536
42	0.042	0.00601	1000.135	459.151	1882.006	519.174	3743.552	1317.290
43	0.043	0.00187	699.973	750.252	1573.167	622.555	4060.824	874.610
44	0.044	0.00389	716.360	647.872	1787.904	510.651	5300.263	1819.532
45	0.045	0.00615	1382.293	764.917	4418.765	876.701	--undefined--	--undefined--
46	0.046	0.00615	1178.056	624.802	2067.264	583.017	--undefined--	--undefined--
47	0.047	0.00208	788.579	594.160	1671.183	490.264	4433.642	873.053
48	0.048	0.00925	973.935	907.518	2689.428	1623.343	--undefined--	--undefined--
49	0.049	0.00981	896.841	892.531	1729.788	761.731	4120.513	513.054
50	0.050	0.00981	970.394	505.394	1797.605	618.992	4127.686	1052.700
51	0.051	0.00417	960.365	464.138	1837.397	472.941	4013.376	1821.671
52	0.052	0.02297	755.159	617.392	3173.976	1093.916	--undefined--	--undefined--
53	0.053	0.02297	1167.493	1044.584	1613.787	1512.258	4079.150	593.661
54	0.054	0.00954	653.042	1462.523	1341.477	692.030	4128.100	491.921
55	0.055	0.01913	970.946	641.327	1870.778	606.825	--undefined--	--undefined--
56	0.056	0.02290	1161.923	945.816	3983.578	753.619	--undefined--	--undefined--
57	0.057	0.02290	1310.055	914.443	1314.512	2903.506	4157.100	1012.004
58	0.058	0.00503	1102.947	671.566	1728.410	1559.188	4142.871	912.418
59	0.059	0.02942	1169.948	527.833	2094.165	481.734	--undefined--	--undefined--
60	0.060	0.03260	1228.981	730.860	4031.449	896.897	--undefined--	--undefined--
61	0.061	0.03260	956.355	1418.991	1518.998	880.156	4448.328	1369.254
62	0.062	0.00733	790.371	779.875	1707.593	592.970	5067.358	1752.267
63	0.063	0.03580	1154.044	521.312	2902.907	957.529	--undefined--	--undefined--
64	0.064	0.03580	1249.918	795.853	1522.363	2914.268	4049.877	538.024
65	0.065	0.01489	937.373	474.392	1729.435	536.048	4153.391	1575.523
66	0.066	0.00814	1140.091	727.420	2047.116	850.653	--undefined--	--undefined--
67	0.067	0.05306	1071.370	1157.582	3925.063	1257.546	--undefined--	--undefined--
68	0.068	0.05306	1355.835	675.622	4092.739	724.006	--undefined--	--undefined--
69	0.069	0.02221	1033.142	620.071	1905.143	606.472	--undefined--	--undefined--
70	0.070	0.06415	943.535	566.904	1858.948	533.553	--undefined--	--undefined--
71	0.071	0.06415	1190.147	776.851	4072.229	710.020	--undefined--	--undefined--
72	0.072	0.05986	875.158	1473.893	1476.336	800.094	4320.140	840.091
73	0.073	0.01149	888.778	846.324	1758.706	718.797	--undefined--	--undefined--
74	0.074	0.03771	1205.575	469.796	3956.730	1410.605	--undefined--	--undefined--
75	0.075	0.03771	1174.474	701.531	2002.926	2216.962	4081.037	558.972
76	0.076	0.02139	855.920	1054.449	1528.484	749.458	4254.672	826.025
77	0.077	0.04772	906.443	547.351	1803.759	482.164	4046.371	1286.759
78	0.078	0.04772	1317.275	498.447	4094.457	962.777	--undefined--	--undefined--
79	0.079	0.03787	993.153	585.360	1850.156	725.476	4799.347	1322.897
80	0.080	0.01361	896.574	842.399	1845.272	653.450	--undefined--	--undefined--
81	0.081	0.07257	1268.983	558.320	2903.478	2670.622	--undefined--	--undefined--
82	0.082	0.07257	1136.708	654.676	1948.886	1415.519	4074.215	518.591
83	0.083	0.02095	837.435	512.739	1693.255	454.499	4020.505	1073.799
84	0.084	0.09233	1123.005	722.445	2016.369	703.989	--undefined--	--undefined--
85	0.085	0.09233	1289.916	591.054	2124.220	5295.947	4168.547	774.837
86	0.086	0.06321	1063.577	3403.526	1323.353	678.267	4278.020	1293.381
87	0.087	0.01176	826.983	930.080	1727.623	750.629	4546.659	1536.573
88	0.088	0.04862	1258.838	718.085	2370.377	2196.103	4375.242	1195.786
89	0.089	0.04862	1358.640	650.000	4101.161	660.972	--undefined--	--undefined--
90	0.090	0.03048	1006.785	862.670	1702.873	918.955	--undefined--	--undefined--
91	0.091	0.05174	1095.105	632.503	1877.636	875.972	--undefined--	--undefined--
92	0.092	0.05174	1412.442	678.293	4153.447	673.452	--undefined--	--undefined--
93	0.093	0.03566	1067.597	669.669	1834.326	990.427	4143.484	703.126
94	0.094	0.08489	975.492	526.690	1805.468	523.718	--undefined--	--undefined--
95	0.095	0.08489	1356.097	606.146	4083.360	613.186	--undefined--	--undefined--
96	0.096	0.07866	1223.208	684.124	1897.018	1981.484	4394.848	1094.534
97	0.097	0.01592	769.327	713.200	1698.010	603.660	3109.048	1280.313
98	0.098	0.04301	1274.040	672.472	2379.467	1519.041	4126.303	1266.869
99	0.099	0.04301	819.540	2928.781	1390.294	749.065	4125.079	594.928
100	0.100	0.02894	883.292	563.064	1704.758	478.662	4422.915	1627.995
101	0.101	0.06652	1091.706	612.276	1816.124	607.337	4637.338	903.596
102	0.102	0.06652	1342.195	787.388	1537.471	2368.536	4158.884	551.162
103	0.103	0.02535	1043.572	748.194	1955.269	827.730	2876.598	4333.071
104	0.104	0.04902	1282.350	507.314	2255.584	738.035	--undefined--	--undefined--
105	0.105	0.04902	1135.184	3976.615	1400.690	827.868	4222.253	912.611
106	0.106	0.03537	1056.673	685.173	1795.389	771.950	4063.762	560.483
107	0.107	0.05769	1215.720	3812.595	1328.093	511.007	4195.985	1099.228
108	0.108	0.07187	1252.867	689.673	1988.129	1717.372	4172.441	595.010
109	0.109	0.07187	967.741	876.001	1782.288	760.122	4345.218	1224.913
110	0.110	0.03430	913.589	643.917	1774.559	626.703	3832.907	1355.150
111	0.111	0.05197	713.480	3663.497	1450.445	678.906	4171.758	633.804
112	0.112	0.05197	1130.482	659.631	1968.837	981.510	4190.798	1244.289
113	0.113	0.03011	759.331	647.177	1706.222	505.180	3903.405	723.913
114	0.114	0.03550	1447.665	946.834	1478.835	2203.551	4063.058	591.085
115	0.115	0.03550	1156.048	708.276	1946.704	1076.562	4229.407	988.103
116	0.116	0.02475	787.869	756.945	1657.542	577.726	4365.762	700.363
117	0.117	0.04206	1500.834	996.624	1671.960	4340.136	4025.397	793.535
118	0.118	0.04206	1021.488	537.261	1891.418	547.522	3999.763	694.257
119	0.119	0.03048	809.137	591.091	1721.935	460.185	4470.541	1315.412
120	0.120	0.04316	794.458	4269.763	1521.717	1071.241	4057.610	948.265
121	0.121	0.04316	1091.943	615.257	1911.825	735.098	4101.961	526.125
122	0.122	0.02989	805.062	757.327	1726.513	590.445	4241.260	1134.892
123	0.123	0.04289	1464.605	773.065	4075.560	821.972	--undefined--	--undefined--
124	0.124	0.04289	1073.266	521.493	1940.373	615.044	3913.074	600.848
125	0.125	0.03599	801.156	857.443	1704.947	622.202	4153.862	587.210
126	0.126	0.05438	1287.281	4348.924	1420.677	667.577	4083.494	652.204
127	0.127	0.05438	1011.930	777.161	1893.813	785.883	3913.738	782.135
128	0.128	0.04031	756.826	687.743	1630.525	484.360	3896.628	496.114
129	0.129	0.03830	1300.945	815.168	2650.378	2748.765	4067.455	927.326
130	0.130	0.03830	982.704	542.705	1849.373	511.625	3844.072	486.621
131	0.131	0.02997	1105.009	666.793	2144.814	950.564	4007.798	889.523
132	0.132	0.04855	1027.472	699.778	1874.573	663.801	4076.819	517.811
133	0.133	0.04855	936.885	523.667	1834.440	445.190	3711.910	977.712
134	0.134	0.03308	2348.761	946.900	3789.892	1849.324	--undefined--	--undefined--
135	0.135	0.04849	1055.813	823.606	1927.795	908.034	3996.111	681.309
136	0.136	0.04849	998.683	434.016	1874.950	440.147	4109.214	2109.854
137	0.137	0.03317	1128.605	1176.296	3896.088	586.419	--undefined--	--undefined--
138	0.138	0.03388	1033.192	495.904	1908.071	497.342	4060.974	829.912
139	0.139	0.03388	752.052	588.873	1760.535	444.976	4174.359	1275.573
140	0.140	0.03258	976.891	915.275	1913.823	988.507	3949.016	806.830
141	0.141	0.03258	992.499	374.134	1856.385	351.285	3754.753	1134.842
142	0.142	0.02119	962.656	707.781	3740.027	765.769	--undefined--	--undefined--
143	0.143	0.02833	996.159	778.538	1874.662	779.501	3979.222	676.649
144	0.144	0.02833	964.729	413.801	1809.860	426.419	3809.625	952.508
145	0.145	0.04040	505.867	6227.194	1246.660	548.836	3965.467	693.964
146	0.146	0.04040	904.754	658.878	1844.751	578.233	3545.925	899.344
147	0.147	0.02870	1121.779	691.533	1839.275	3301.095	3444.084	2818.720
148	0.148	0.02870	1024.076	476.103	1875.966	502.615	4136.005	589.968
149	0.149	0.02166	896.426	624.917	1770.710	540.450	3564.792	1311.364
150	0.150	0.02848	1141.936	2182.227	1338.934	954.021	3996.498	693.737
151	0.151	0.02848	936.747	449.031	1818.104	391.372	3796.326	991.377
152	0.152	0.03131	915.728	746.003	1688.653	894.204	3577.721	447.612
153	0.153	0.03131	1048.672	553.595	1848.388	610.620	4052.879	494.241
154	0.154	0.03853	937.070	711.200	1770.121	712.496	3866.576	728.927
155	0.155	0.03853	988.625	883.153	1736.458	909.905	3981.646	587.832
156	0.156	0.03311	913.135	565.889	1789.772	494.283	4058.414	662.465
157	0.157	0.03508	917.553	742.514	1664.802	640.432	4068.443	637.420
158	0.158	0.03508	1034.846	517.236	1846.044	551.446	3924.538	411.674
159	0.159	0.02978	1141.127	862.177	1708.594	1307.046	4010.398	828.136
160	0.160	0.03040	1180.282	829.884	1722.964	1146.841	4055.372	598.507
161	0.161	0.03040	868.853	829.030	1822.722	702.060	3997.677	638.787
162	0.162	0.03303	1127.740	855.654	1879.356	1263.627	4005.706	1105.207
163	0.163	0.03303	988.900	694.566	1871.571	621.066	3931.384	631.939
164	0.164	0.02956	955.597	855.826	1624.018	735.411	4279.411	517.610
165	0.165	0.02956	984.606	708.016	1923.772	688.328	3635.985	736.691
166	0.166	0.02987	1197.954	816.333	1615.628	1401.245	3963.858	601.978
167	0.167	0.03805	950.491	975.629	1904.558	965.932	3861.759	837.050
168	0.168	0.03805	1078.206	680.616	1871.383	863.321	4011.609	503.014
169	0.169	0.03341	966.034	549.074	1855.067	508.593	4189.235	996.685
170	0.170	0.03341	1028.308	429.248	1930.011	385.736	4042.365	832.050
171	0.171	0.04610	1004.006	436.312	1793.683	493.401	3975.468	714.249
172	0.172	0.04610	1110.945	757.150	1922.374	893.056	4154.252	780.205
173	0.173	0.03715	1237.782	491.854	3771.594	1429.010	--undefined--	--undefined--
174	0.174	0.03627	1065.312	1058.802	1955.187	1072.241	4099.883	1012.277
175	0.175	0.03627	1066.186	562.301	1976.684	735.115	3857.636	980.356
176	0.176	0.02830	1278.637	530.330	2283.614	652.738	4441.635	1593.172
177	0.177	0.02830	1079.091	620.081	1998.935	595.501	4030.602	934.542
178	0.178	0.02341	1594.735	728.605	3730.134	1148.082	--undefined--	--undefined--
179	0.179	0.02341	1089.572	762.132	2016.599	819.835	3977.209	686.095
180	0.180	0.01803	1244.929	539.453	3739.190	803.691	--undefined--	--undefined--
181	0.181	0.01803	1393.918	671.831	1729.208	2328.602	4169.155	659.514
182	0.182	0.01403	764.940	983.205	1893.477	866.260	4007.904	829.407
183	0.183	0.02709	1425.720	1252.759	2201.210	3553.253	4128.860	1939.690
184	0.184	0.02709	1191.777	693.864	2137.287	1018.883	3853.560	1678.040
185	0.185	0.02089	1573.657	1369.063	2848.439	1850.074	--undefined--	--undefined--
186	0.186	0.02089	1075.813	782.257	1974.847	706.333	3901.322	1345.475
187	0.187	0.02270	1105.398	760.023	2276.420	1194.472	5014.306	1013.764
188	0.188	0.02270	1127.174	517.784	2047.616	588.022	3972.616	800.220
189	0.189	0.01297	1233.690	899.156	2731.861	1659.772	4107.998	1227.348
190	0.190	0.02023	1167.342	915.598	2047.385	1152.952	3976.971	826.853
191	0.191	0.02023	277.100	1173.398	2524.237	692.420	4085.410	1172.236
192	0.192	0.01773	1403.260	582.778	1861.595	4416.281	4079.299	744.285
193	0.193	0.01998	601.967	1311.001	1915.823	831.975	4135.403	618.414
194	0.194	0.02348	1318.299	1016.056	2017.448	2797.851	3971.183	857.596
195	0.195	0.02348	990.975	750.812	1978.837	717.184	3962.018	706.999
196	0.196	0.02078	1062.301	1289.249	2356.865	1494.906	3965.749	883.643
197	0.197	0.02078	1180.001	587.212	2180.193	786.847	3814.025	701.407
198	0.198	0.02623	1052.312	1435.150	2363.753	1300.881	3924.808	877.653
199	0.199	0.02623	1075.427	690.184	2019.883	640.523	3903.473	646.305
200	0.200	0.01866	1855.511	1184.812	3917.179	1296.314	--undefined--	--undefined--
201	0.201	0.01866	1060.056	547.672	1978.833	473.876	3977.216	549.536
202	0.202	0.02425	1869.039	526.765	4113.411	1074.804	--undefined--	--undefined--
203	0.203	0.02425	1167.443	543.472	2125.964	668.572	3845.970	549.209
204	0.204	0.02117	1110.538	1273.315	2491.777	942.147	4011.955	1037.520
205	0.205	0.02117	1175.619	759.104	2134.132	1032.309	3952.959	749.380
206	0.206	0.02217	632.445	1031.281	2571.961	617.757	4170.199	1084.350
207	0.207	0.02217	1263.170	999.355	1883.354	1784.050	3956.269	615.329
208	0.208	0.02137	666.943	563.583	2566.635	1065.466	4032.591	616.941
209	0.209	0.01994	1419.488	646.982	4006.482	644.680	--undefined--	--undefined--
210	0.210	0.01994	798.401	1601.341	1345.482	2289.134	4124.890	902.046
211	0.211	0.01974	1358.479	660.143	1949.068	4014.859	3974.251	675.417
212	0.212	0.01974	1298.146	1118.922	4131.291	787.913	--undefined--	--undefined--
213	0.213	0.01666	1245.461	694.779	2287.173	1766.962	4005.667	636.525
214	0.214	0.02518	771.502	840.603	1713.743	937.132	3878.561	571.307
215	0.215	0.02518	1272.760	909.559	2700.636	2204.521	4110.466	1204.853
216	0.216	0.02043	945.116	736.026	1890.975	1219.496	3832.036	476.662
217	0.217	0.01732	1075.839	979.405	2464.493	1424.407	4011.334	852.270
218	0.218	0.01732	1110.276	717.039	2064.515	1884.538	3763.660	966.645
219	0.219	0.02234	1081.694	1326.743	2563.281	2181.891	4098.434	1892.492
220	0.220	0.02234	1062.729	588.664	2119.587	1281.931	3782.262	631.082
221	0.221	0.02266	956.220	1346.963	2558.420	1967.939	4035.985	1584.550
222	0.222	0.02266	1076.792	628.686	2116.541	1236.088	3861.399	604.191
223	0.223	0.02197	922.888	1213.494	2372.149	1780.272	3898.990	1239.996
224	0.224	0.02197	1141.626	714.767	2070.271	1771.830	3971.726	766.143
225	0.225	0.02212	903.999	1197.718	2335.300	1489.300	3828.865	1032.211
226	0.226	0.02212	1143.082	731.543	1958.784	2103.677	3956.731	679.196
227	0.227	0.02344	927.076	1300.569	2362.017	1605.809	3952.027	1172.213
228	0.228	0.02344	1238.964	701.148	1495.823	3044.817	4035.415	843.681
229	0.229	0.02819	948.134	1285.439	2387.072	1575.759	3895.830	1108.836
230	0.230	0.02819	1211.571	3544.250	1236.416	637.336	4058.887	728.160
231	0.231	0.02665	980.560	1293.656	2342.597	1532.584	3827.288	1406.716
232	0.232	0.02665	1258.234	561.213	4096.083	783.626	--undefined--	--undefined--
233	0.233	0.02342	1026.866	1104.649	2225.178	1227.357	3724.565	1166.774
234	0.234	0.02554	1236.807	645.383	1482.410	2358.331	4025.338	468.968
235	0.235	0.02554	1036.039	929.532	2218.927	1028.690	3702.151	897.869
236	0.236	0.02152	997.986	565.843	1812.514	676.926	4026.003	416.880
237	0.237	0.02152	1067.083	731.583	2153.445	826.471	3693.386	810.435
238	0.238	0.02065	1000.575	551.976	1954.038	655.733	3879.044	867.544
239	0.239	0.02065	1103.581	639.436	2073.574	814.298	3894.115	625.659
240	0.240	0.01430	1044.539	822.894	2067.374	1061.552	3834.578	1226.993
241	0.241	0.01399	1036.344	508.040	1959.478	530.499	3906.649	475.349
242	0.242	0.01277	1052.540	1179.362	1901.475	1577.273	2832.564	1545.230
243	0.243	0.01316	956.777	677.366	1856.259	594.594	3979.348	437.982
244	0.244	0.01316	1116.218	1147.834	2226.698	1054.632	--undefined--	--undefined--
245	0.245	0.01199	982.311	1243.284	1751.123	1240.314	3976.243	972.922
246	0.246	0.01199	1273.424	805.088	2468.705	771.205	--undefined--	--undefined--
247	0.247	0.00945	873.025	1041.235	1823.769	1118.972	3818.049	714.273
248	0.248	0.00718	1144.556	850.036	2635.224	1409.353	--undefined--	--undefined--
249	0.249	0.00718	1173.547	1155.783	1239.602	2268.541	3881.636	762.132
250	0.250	0.00794	999.485	507.797	2058.664	1200.256	3486.059	651.576
251	0.251	0.00794	986.096	729.676	1822.348	1167.951	3827.767	665.217
252	0.252	0.01191	1174.824	495.689	3430.830	852.326	--undefined--	--undefined--
253	0.253	0.01191	1204.021	554.968	1409.695	3049.715	3925.190	684.303
254	0.254	0.01053	825.222	1160.312	1541.165	1259.106	3543.213	571.035
255	0.255	0.01053	1127.310	1699.594	1297.557	833.406	4111.742	1013.585
256	0.256	0.01080	812.908	1075.178	1861.188	1380.382	3676.124	756.799
257	0.257	0.01115	853.995	664.369	1643.787	528.492	4053.841	693.028
258	0.258	0.01115	906.304	913.542	2015.028	1416.727	3630.518	629.394
259	0.259	0.01382	1040.797	587.041	1810.762	787.812	4196.234	640.870
260	0.260	0.01382	1063.283	584.218	2482.452	2309.441	3628.085	750.669
261	0.261	0.01534	891.510	741.848	1766.872	715.010	4315.146	1059.255
262	0.262	0.01534	959.077	557.737	2441.925	3972.987	3736.053	452.158
263	0.263	0.01810	832.623	1112.477	1626.615	905.504	4273.706	954.829
264	0.264	0.01810	1140.276	721.613	3842.156	784.972	--undefined--	--undefined--
265	0.265	0.01549	971.909	1038.874	1474.197	871.543	4127.612	739.364
266	0.266	0.01549	1290.717	661.251	4161.041	868.759	--undefined--	--undefined--
267	0.267	0.01763	1261.243	637.791	2065.692	5633.152	3926.523	2945.353
268	0.268	0.01763	980.509	572.285	1901.493	730.633	3969.858	591.944
269	0.269	0.01346	1008.843	1152.618	2052.396	1534.075	3766.455	1105.994
270	0.270	0.01900	1002.909	519.236	1902.137	577.569	4192.850	1329.284
271	0.271	0.01900	1284.337	1606.251	3033.763	2033.173	--undefined--	--undefined--
272	0.272	0.01748	956.034	507.105	1818.247	461.716	--undefined--	--undefined--
273	0.273	0.01748	1048.351	1042.193	2386.824	1517.265	3557.550	1487.054
274	0.274	0.01567	804.435	3958.890	1284.436	467.089	4497.570	1087.444
275	0.275	0.01567	854.098	447.768	2337.115	490.305	4114.985	499.936
276	0.276	0.02145	1224.159	401.032	4025.197	848.285	--undefined--	--undefined--
277	0.277	0.02145	584.382	1081.525	2512.302	648.464	4949.678	1173.172
278	0.278	0.01045	1047.657	699.016	2453.303	1333.515	--undefined--	--undefined--
279	0.279	0.01045	702.289	1398.841	2205.996	905.439	4368.545	1448.568
280	0.280	0.01527	1353.608	854.294	2868.535	959.466	--undefined--	--undefined--
281	0.281	0.01527	1696.497	981.585	4871.948	1060.817	--undefined--	--undefined--
282	0.282	0.01227	1074.746	1303.450	2350.033	1194.260	--undefined--	--undefined--
283	0.283	0.01227	1325.621	1102.110	2259.151	1522.161	4045.885	1161.906
284	0.284	0.00784	1153.007	1911.951	2210.595	2612.579	2656.023	1644.844
285	0.285	0.01098	1541.236	600.810	2615.072	942.862	4864.210	1532.870
286	0.286	0.01098	1239.556	1197.366	2504.522	919.685	--undefined--	--undefined--
287	0.287	0.00999	1109.204	752.668	2348.019	520.891	--undefined--	--undefined--
288	0.288	0.00999	1229.369	1723.237	2546.926	1055.627	--undefined--	--undefined--
289	0.289	0.00651	810.322	450.047	2561.915	678.141	5115.179	755.514
290	0.290	0.00651	1895.488	544.455	3691.402	584.591	--undefined--	--undefined--
291	0.291	0.00748	1114.053	681.923	2767.131	645.702	4353.992	4477.352
292	0.292	0.00748	661.711	2641.410	1981.867	1487.152	--undefined--	--undefined--
293	0.293	0.00456	1104.315	1024.409	2525.724	1059.634	--undefined--	--undefined--
294	0.294	0.00447	868.374	1646.948	2267.650	1240.137	--undefined--	--undefined--
295	0.295	0.00298	1482.167	922.395	2766.388	702.846	--undefined--	--undefined--
296	0.296	0.00298	756.409	1145.322	2214.055	795.238	--undefined--	--undefined--
297	0.297	0.00101	850.975	1443.754	2298.662	1011.800	--undefined--	--undefined--
298	0.298	0.00101	1569.353	718.009	2687.242	595.372	--undefined--	--undefined--
299	0.299	0.00024	1453.782	1216.382	2262.690	1274.401	3092.140	989.215
300	0.300	0.00006	926.921	1132.202	2069.241	3528.919	3502.444	1099.938
301	0.301	0.00005	487.656	987.526	2079.487	469.363	3850.433	705.036
302	0.302	0.00008	785.133	1011.214	2223.509	1515.234	3582.393	904.136
303	0.303	0.00008	1353.838	1588.659	2697.299	1488.976	--undefined--	--undefined--
304	0.304	0.00005	1207.604	1328.011	2211.732	858.986	5249.446	1377.980
305	0.305	0.00006	1105.694	1005.539	2393.387	1118.656	--undefined--	--undefined--
306	0.306	0.00006	1651.130	620.390	2555.272	753.180	--undefined--	--undefined--
307	0.307	0.00005	847.902	1025.940	2139.849	720.941	--undefined--	--undefined--
308	0.308	0.00005	1714.966	749.161	2642.364	789.858	--undefined--	--undefined--
309	0.309	0.00004	615.129	1260.159	2254.452	764.686	3787.286	3258.561
310	0.310	0.00004	1553.899	1206.818	2535.360	752.551	--undefined--	--undefined--
311	0.311	0.00004	2414.192	756.775	2809.943	3491.671	--undefined--	--undefined--
312	0.312	0.00003	943.318	2220.745	2351.433	779.887	--undefined--	--undefined--
313	0.313	0.00003	1301.609	3163.281	2324.840	930.666	--undefined--	--undefined--
314	0.314	0.00006	648.378	604.831	2675.073	758.075	3596.750	702.833
315	0.315	0.00006	1853.516	1437.070	3004.093	786.342	--undefined--	--undefined--
316	0.316	0.00012	1761.104	1275.496	2732.117	853.492	--undefined--	--undefined--
317	0.317	0.00012	647.388	831.142	2722.264	923.121	3755.826	718.911
318	0.318	0.00045	699.895	1699.862	1261.713	1213.446	3550.137	1342.721
319	0.319	0.00148	853.979	546.192	1718.297	965.484	3310.176	617.563
320	0.320	0.00747	562.194	1307.838	1645.590	1574.971	--undefined--	--undefined--
321	0.321	0.00747	1393.495	1809.809	2975.770	1243.675	--undefined--	--undefined--
322	0.322	0.01075	1967.515	1032.751	2341.673	1286.315	--undefined--	--undefined--
323	0.323	0.01075	822.801	1310.691	2682.508	1207.799	4732.638	1413.927
324	0.324	0.00769	898.673	560.488	2589.838	527.364	4283.519	1265.230
325	0.325	0.00769	1800.637	1048.475	3335.302	1002.032	--undefined--	--undefined--
326	0.326	0.00752	1200.628	766.142	2821.991	1153.482	5102.302	2530.814
327	0.327	0.00752	1595.551	982.705	2922.652	820.252	--undefined--	--undefined--
328	0.328	0.00628	1239.923	1061.606	3056.009	1104.482	--undefined--	--undefined--
329	0.329	0.00628	1148.774	2468.235	2427.255	1278.715	--undefined--	--undefined--
330	0.330	0.00553	1485.979	926.244	2850.014	711.474	--undefined--	--undefined--
331	0.331	0.00553	1580.245	864.744	2727.576	619.685	--undefined--	--undefined--
332	0.332	0.00494	1488.142	1019.364	2862.901	807.575	--undefined--	--undefined--
333	0.333	0.00291	1934.014	984.583	2790.334	1209.061	--undefined--	--undefined--
334	0.334	0.00291	1879.409	1441.067	3462.389	1915.750	--undefined--	--undefined--
335	0.335	0.00098	2233.736	649.645	--undefined--	--undefined--	--undefined--	--undefined--
336	0.336	0.00089	1938.785	567.800	3590.600	544.655	--undefined--	--undefined--
337	0.337	0.00072	1498.679	507.615	2232.304	629.613	4398.544	1624.898
338	0.338	0.00014	1846.259	457.967	2940.240	717.336	4890.775	1465.759
339	0.339	0.00010	1708.851	1027.685	2760.446	886.527	--undefined--	--undefined--
340	0.340	0.00007	437.202	494.359	3143.897	2894.979	5106.776	1433.728
341	0.341	0.00007	2225.975	783.996	2460.884	2795.032	--undefined--	--undefined--
342	0.342	0.00006	565.190	803.365	1649.937	804.061	5061.389	1040.676
343	0.343	0.00006	1106.469	1250.740	2443.520	882.407	--undefined--	--undefined--
344	0.344	0.00004	472.649	680.558	1342.296	537.582	4106.716	970.808
345	0.345	0.00003	387.589	1535.523	2329.658	1829.235	3763.222	1258.371
346	0.346	0.00003	583.515	960.300	2875.315	837.317	--undefined--	--undefined--
347	0.347	0.00003	529.355	766.928	2502.412	792.944	--undefined--	--undefined--
348	0.348	0.00002	493.270	877.459	2976.876	899.158	--undefined--	--undefined--
349	0.349	0.00002	516.096	404.768	2373.361	941.383	3860.746	1196.148
350	0.350	0.00002	533.522	904.363	1396.057	3007.702	3616.886	474.172
351	0.351	0.00001	512.018	871.885	1991.465	3177.709	3975.632	2112.929
352	0.352	0.00002	995.770	567.414	3341.641	722.754	--undefined--	--undefined--
353	0.353	0.00002	1094.243	1215.282	2629.965	1064.568	--undefined--	--undefined--
354	0.354	0.00002	962.393	1506.576	2310.769	952.579	--undefined--	--undefined--
355	0.355	0.00026	554.359	572.211	2336.165	1548.138	--undefined--	--undefined--
356	0.356	0.00080	1880.283	2142.538	2163.899	3354.357	3168.902	1539.903
357	0.357	0.00080	490.248	895.951	2918.093	598.581	--undefined--	--undefined--
358	0.358	0.00032	1135.913	717.805	2466.529	953.401	--undefined--	--undefined--
359	0.359	0.00102	672.068	731.339	1515.564	666.834	4959.655	1272.590
360	0.360	0.00317	779.117	2021.324	1631.907	1883.513	3087.393	1283.999
361	0.361	0.00749	1199.260	1122.260	2444.981	657.574	--undefined--	--undefined--
362	0.362	0.00749	1544.987	2612.617	3011.703	1676.324	--undefined--	--undefined--
363	0.363	0.00860	1960.007	718.668	3157.597	1756.823	--undefined--	--undefined--
364	0.364	0.00860	1129.017	1138.009	3557.733	1166.927	--undefined--	--undefined--
365	0.365	0.00642	1084.202	1085.485	2036.073	1635.023	3564.478	783.530
366	0.366	0.00642	1820.000	1435.581	3630.977	885.049	--undefined--	--undefined--
367	0.367	0.00881	824.515	662.522	2899.773	751.075	--undefined--	--undefined--
368	0.368	0.00881	1834.576	487.208	3316.649	609.468	--undefined--	--undefined--
369	0.369	0.00742	821.565	588.458	2934.804	1518.849	3813.989	2327.902
370	0.370	0.00742	1291.152	1400.070	2095.818	1232.578	3583.084	904.678
371	0.371	0.00699	830.894	387.215	2462.214	914.698	3383.832	598.310
372	0.372	0.00699	1537.630	1138.051	2074.098	5222.657	2807.294	1796.059
373	0.373	0.00415	906.739	861.294	2655.478	544.861	3739.554	3089.757
374	0.374	0.00415	1321.938	1004.920	2289.048	1891.617	2975.061	2076.341
375	0.375	0.00198	1234.994	2215.456	2430.557	843.644	--undefined--	--undefined--
376	0.376	0.00198	1422.294	679.595	2787.014	1152.377	--undefined--	--undefined--
377	0.377	0.00053	2094.622	2393.396	4975.262	1350.271	--undefined--	--undefined--
378	0.378	0.00020	1032.251	1331.963	1921.510	821.254	4966.629	1046.052
379	0.379	0.00014	2116.477	763.886	3147.939	772.780	--undefined--	--undefined--
380	0.380	0.00012	2120.276	690.090	3102.804	614.782	--undefined--	--undefined--
381	0.381	0.00012	949.256	1084.278	2115.187	1527.643	3465.002	1428.034
382	0.382	0.00006	1880.403	847.452	2687.011	858.610	--undefined--	--undefined--
383	0.383	0.00006	528.150	2416.587	1657.830	1860.590	--undefined--	--undefined--
384	0.384	0.00004	2103.816	1929.210	3205.281	1595.205	--undefined--	--undefined--
385	0.385	0.00004	1253.298	1111.742	3613.674	654.006	--undefined--	--undefined--
386	0.386	0.00002	477.147	430.080	3173.979	666.132	4090.375	1198.434
387	0.387	0.00002	551.773	583.923	3289.394	446.166	--undefined--	--undefined--
388	0.388	0.00002	1282.289	707.272	2344.938	809.800	--undefined--	--undefined--
389	0.389	0.00002	923.569	579.358	2371.548	1286.046	3919.187	1911.422
390	0.390	0.00002	1365.250	1601.318	2500.853	1486.700	--undefined--	--undefined--
391	0.391	0.00003	747.670	891.345	1860.768	860.830	3340.058	923.110
392	0.392	0.00003	1044.365	960.777	2512.578	486.272	--undefined--	--undefined--
393	0.393	0.00002	479.519	1054.567	2132.507	1129.106	3402.530	1351.917
394	0.394	0.00002	708.376	861.964	3115.539	1376.486	--undefined--	--undefined--
395	0.395	0.00002	573.810	751.655	2782.966	633.328	--undefined--	--undefined--
396	0.396	0.00002	890.870	444.742	3795.263	1485.935	--undefined--	--undefined--
397	0.397	0.00012	2663.459	701.139	3808.554	1599.030	--undefined--	--undefined--
398	0.398	0.00012	529.176	869.182	2665.126	973.489	3493.732	855.961
399	0.399	0.00003	730.140	1046.202	2437.587	3084.249	3218.537	1378.384
400	0.400	0.00068	542.717	904.996	1545.519	1171.738	3688.855	4468.199
401	0.401	0.00107	768.284	768.708	2169.850	683.624	3301.364	487.202
402	0.402	0.00107	513.903	429.932	2002.632	1593.216	3243.377	445.555
403	0.403	0.00470	478.648	723.506	2269.312	823.299	--undefined--	--undefined--
404	0.404	0.00470	633.995	968.465	1575.363	1692.917	3132.465	987.323
405	0.405	0.00399	1630.034	548.139	2487.332	640.107	--undefined--	--undefined--
406	0.406	0.00399	881.946	729.766	3296.966	1077.753	--undefined--	--undefined--
407	0.407	0.00321	1387.602	477.944	2238.611	426.551	--undefined--	--undefined--
408	0.408	0.00321	764.085	1031.532	2025.605	1311.735	3677.492	1196.751
409	0.409	0.00318	1367.674	392.439	2227.252	315.812	--undefined--	--undefined--
410	0.410	0.00318	619.592	821.789	1944.026	969.716	3505.852	778.729
411	0.411	0.00337	1551.660	398.303	2441.976	444.031	--undefined--	--undefined--
412	0.412	0.00337	389.133	3366.207	1408.299	2518.154	2670.177	2218.369
413	0.413	0.00233	1556.241	583.149	2577.180	700.648	--undefined--	--undefined--
414	0.414	0.00313	1284.246	1175.756	2598.718	1083.253	--undefined--	--undefined--
415	0.415	0.00313	829.093	1034.213	1895.807	583.914	2938.388	536.259
416	0.416	0.00251	679.062	808.105	1805.223	827.680	3000.246	851.376
417	0.417	0.00251	678.288	654.901	1830.129	461.688	2862.903	397.528
418	0.418	0.00091	966.106	599.584	2191.115	924.021	--undefined--	--undefined--
419	0.419	0.00091	1186.735	713.122	2346.359	770.560	--undefined--	--undefined--
420	0.420	0.00022	1209.826	799.186	2455.763	435.114	--undefined--	--undefined--
421	0.421	0.00022	1238.872	1160.791	2426.103	812.823	--undefined--	--undefined--
422	0.422	0.00021	226.367	1903.762	2208.001	571.508	3741.502	2365.570
423	0.423	0.00005	2127.148	1010.838	3052.570	829.858	--undefined--	--undefined--
424	0.424	0.00006	1120.547	789.809	2504.593	959.366	--undefined--	--undefined--
425	0.425	0.00006	1013.040	576.771	3178.927	1064.671	--undefined--	--undefined--
426	0.426	0.00006	872.094	938.579	2708.830	601.271	--undefined--	--undefined--
427	0.427	0.00004	1058.459	497.980	2795.534	605.834	--undefined--	--undefined--
428	0.428	0.00005	986.942	866.347	3144.206	1078.475	--undefined--	--undefined--
429	0.429	0.00005	981.452	656.228	2901.719	880.732	--undefined--	--undefined--
430	0.430	0.00002	426.802	537.852	1953.587	1000.193	2725.833	593.580
431	0.431	0.00002	917.381	469.502	3162.529	1061.847	--undefined--	--undefined--
432	0.432	0.000006	519.901	402.973	2206.370	681.238	3080.625	620.732
433	0.433	0.00001	1185.962	758.139	1983.597	1786.687	2980.648	770.179
434	0.434	0.00002	1011.501	562.128	2910.839	805.027	--undefined--	--undefined--
435	0.435	0.00002	465.013	639.244	1315.453	550.038	3434.772	953.585
436	0.436	0.00002	512.055	693.848	1341.680	664.029	3426.806	432.482
437	0.437	0.000009	897.519	435.059	3647.749	1649.334	--undefined--	--undefined--
438	0.438	0.000008	506.445	532.231	3237.336	3905.560	3405.824	872.445
439	0.439	0.000008	944.673	572.543	2223.847	1927.471	3299.889	620.010
440	0.440	0.00001	1674.865	793.059	3198.592	1406.233	--undefined--	--undefined--
441	0.441	0.00005	2002.298	1281.911	2837.810	640.735	--undefined--	--undefined--
442	0.442	0.00014	823.356	426.346	2679.526	483.802	4806.014	2738.700
443	0.443	0.00107	808.869	1043.586	2496.752	646.039	3532.121	638.869
444	0.444	0.00107	1088.961	508.186	3395.100	666.273	--undefined--	--undefined--
445	0.445	0.00054	1109.817	824.432	2481.823	1670.993	--undefined--	--undefined--
446	0.446	0.00099	813.930	416.593	2445.742	1569.792	--undefined--	--undefined--
447	0.447	0.00099	458.846	759.424	1316.372	740.255	3044.592	984.225
448	0.448	0.00053	367.881	424.784	1959.701	454.391	3037.420	456.840
449	0.449	0.00111	989.884	856.181	1566.212	2217.805	--undefined--	--undefined--
450	0.450	0.00111	980.419	765.423	2054.695	1049.428	--undefined--	--undefined--
451	0.451	0.00113	1000.492	378.458	1910.589	423.593	--undefined--	--undefined--
452	0.452	0.00113	831.890	604.503	1521.366	698.941	--undefined--	--undefined--
453	0.453	0.00121	1056.644	790.511	2109.297	707.437	--undefined--	--undefined--
454	0.454	0.00121	975.090	590.017	2084.121	695.708	--undefined--	--undefined--
455	0.455	0.00101	1027.111	868.806	2170.776	1088.637	--undefined--	--undefined--
456	0.456	0.00097	954.990	654.782	1932.279	1927.726	--undefined--	--undefined--
457	0.457	0.00097	1006.012	696.644	2012.934	780.184	--undefined--	--undefined--
458	0.458	0.00084	539.747	500.732	1412.319	444.921	2378.023	464.685
459	0.459	0.00084	550.003	496.890	1463.167	424.541	--undefined--	--undefined--
460	0.460	0.00043	375.092	376.896	1869.789	664.869	--undefined--	--undefined--
461	0.461	0.00080	916.941	718.610	1580.443	2107.657	--undefined--	--undefined--
462	0.462	0.00080	957.854	466.176	1980.162	449.713	--undefined--	--undefined--
463	0.463	0.00074	721.397	368.129	1568.518	363.496	--undefined--	--undefined--
464	0.464	0.00074	878.091	613.343	1590.765	608.941	--undefined--	--undefined--
465	0.465	0.00045	876.765	943.482	2030.227	611.259	--undefined--	--undefined--
466	0.466	0.00048	387.333	624.892	1176.154	635.465	2339.260	996.641
467	0.467	0.00048	452.928	906.190	1452.571	1036.118	2619.586	1251.134
468	0.468	0.00034	673.022	437.881	1366.175	431.776	4481.066	1436.696
469	0.469	0.00034	948.163	391.055	2199.264	473.016	--undefined--	--undefined--
470	0.470	0.00013	432.081	659.327	1568.355	1285.293	2944.008	1013.189
471	0.471	0.00012	855.322	451.732	1978.983	734.907	--undefined--	--undefined--
472	0.472	0.00012	1096.472	853.997	2421.123	974.163	--undefined--	--undefined--
473	0.473	0.00006	974.850	1054.604	1681.637	3111.851	2509.707	1805.683
474	0.474	0.00003	893.480	908.849	1257.888	2591.352	--undefined--	--undefined--
475	0.475	0.00003	424.766	510.848	1287.780	464.453	4752.425	1446.861
476	0.476	0.00003	1256.756	780.061	2942.441	1054.780	--undefined--	--undefined--
477	0.477	0.00002	469.923	895.682	1526.114	906.600	3075.194	1315.560
478	0.478	0.00001	1228.902	1254.161	3430.178	1896.899	--undefined--	--undefined--
479	0.479	0.000008	559.384	993.570	1473.207	1062.523	3514.324	955.181
480	0.480	0.00001	759.339	1794.855	1054.782	1119.894	--undefined--	--undefined--
481	0.481	0.00001	1082.459	1215.825	2651.505	1092.743	--undefined--	--undefined--
482	0.482	0.00002	548.287	739.736	1406.486	610.171	--undefined--	--undefined--
483	0.483	0.00002	908.061	558.879	2484.997	1328.429	--undefined--	--undefined--
484	0.484	0.00002	404.573	706.396	1447.127	849.831	4238.709	653.106
485	0.485	0.00003	965.333	477.217	1907.121	795.719	--undefined--	--undefined--
486	0.486	0.00003	497.964	751.493	1510.527	808.683	2682.722	1134.116
487	0.487	0.00003	848.643	624.257	2386.465	2087.609	--undefined--	--undefined--
488	0.488	0.00002	975.590	359.481	2971.004	1637.262	--undefined--	--undefined--
489	0.489	0.00002	729.738	908.730	1610.105	1188.203	2803.920	2450.711
490	0.490	0.00002	443.960	764.801	940.348	1831.883	3686.118	2154.358
491	0.491	0.00001	440.141	571.350	1349.543	575.141	3889.146	4193.314
492	0.492	0.00001	804.626	464.040	1589.287	726.037	2811.099	1212.876
493	0.493	0.00001	882.568	701.345	2909.697	2585.085	--undefined--	--undefined--
494	0.494	0.000006	890.758	659.796	2984.946	3198.287	--undefined--	--undefined--
495	0.495	0.00001	942.116	539.345	1799.892	603.752	--undefined--	--undefined--
496	0.496	0.00001	996.540	568.350	4040.989	1580.665	--undefined--	--undefined--
497	0.497	0.000005	422.438	716.444	2057.793	1620.947	--undefined--	--undefined--
498	0.498	0.000008	801.054	505.067	1602.074	659.457	--undefined--	--undefined--
499	0.499	0.000008	432.379	724.820	2159.809	2851.321	4953.119	2513.007
500	0.500	0.000007	474.149	807.036	1506.776	946.763	--undefined--	--undefined--
501	0.501	0.000007	729.943	346.229	1535.973	344.815	5251.492	2868.515
502	0.502	0.000007	784.061	447.761	3455.897	1506.577	--undefined--	--undefined--
503	0.503	0.000006	803.438	392.873	1700.022	410.191	--undefined--	--undefined--
504	0.504	0.000009	865.334	615.863	1750.597	903.354	3598.837	3888.768
505	0.505	0.000009	689.178	634.442	3047.797	1295.693	--undefined--	--undefined--
506	0.506	0.000007	344.086	1386.492	1034.475	1194.175	--undefined--	--undefined--
507	0.507	0.000008	741.540	669.909	1571.850	859.779	3092.690	2052.076
508	0.508	0.000008	407.794	414.181	1338.574	1216.310	5110.678	849.072
509	0.509	0.00001	859.241	744.126	3119.634	2240.823	--undefined--	--undefined--
510	0.510	0.00001	807.884	684.999	1742.139	966.189	--undefined--	--undefined--
511	0.511	0.000009	806.898	681.235	2795.114	4369.527	--undefined--	--undefined--
512	0.512	0.00001	404.326	368.789	1248.610	357.995	4792.128	1168.458
513	0.513	0.00001	621.890	618.393	1420.403	545.454	5003.893	2137.810
514	0.514	0.00001	789.423	490.437	3159.488	1648.786	--undefined--	--undefined--
515	0.515	0.00001	818.402	695.284	1632.375	1058.810	--undefined--	--undefined--
516	0.516	0.00001	1102.442	926.051	3600.407	2491.666	--undefined--	--undefined--
517	0.517	0.00003	802.808	515.808	2698.033	1243.275	--undefined--	--undefined--
518	0.518	0.00003	412.668	714.919	1274.526	681.633	--undefined--	--undefined--
519	0.519	0.00002	982.081	480.235	2962.660	1506.197	--undefined--	--undefined--
520	0.520	0.00005	487.096	600.727	1618.563	1237.006	3094.820	524.436
521	0.521	0.00005	343.949	1070.326	1166.736	823.055	--undefined--	--undefined--
522	0.522	0.00003	217.466	1175.280	1053.656	711.482	3365.554	670.437
523	0.523	0.00007	743.487	922.886	2559.097	2221.564	--undefined--	--undefined--
524	0.524	0.00007	842.294	307.005	2713.402	857.680	--undefined--	--undefined--
525	0.525	0.00003	733.158	510.715	2963.701	1034.039	--undefined--	--undefined--
526	0.526	0.00014	895.068	483.219	2957.114	683.302	--undefined--	--undefined--
527	0.527	0.00014	829.286	547.413	4491.376	1495.073	--undefined--	--undefined--
528	0.528	0.00006	663.045	719.888	2930.095	1254.948	--undefined--	--undefined--
529	0.529	0.00019	923.165	683.551	2487.290	1258.864	--undefined--	--undefined--
530	0.530	0.00019	747.108	649.888	2063.569	1023.729	--undefined--	--undefined--
531	0.531	0.00010	1003.992	983.542	2439.074	721.703	--undefined--	--undefined--
532	0.532	0.00026	734.123	1173.338	2072.518	1188.857	--undefined--	--undefined--
533	0.533	0.00026	1121.198	814.650	2347.382	865.436	--undefined--	--undefined--
534	0.534	0.00037	425.016	1455.049	1610.707	2121.575	2745.057	1306.796
535	0.535	0.00037	559.451	1068.893	1751.148	1275.016	3982.914	2538.484
536	0.536	0.00037	595.743	917.764	1693.610	886.567	2920.584	932.037
537	0.537	0.00067	705.184	1278.328	2718.641	647.943	--undefined--	--undefined--
538	0.538	0.00067	476.968	693.521	1556.419	941.191	4569.134	979.767
539	0.539	0.00046	1267.193	1112.707	2408.188	1410.166	--undefined--	--undefined--
540	0.540	0.00092	879.147	1375.419	3110.937	1663.455	--undefined--	--undefined--
541	0.541	0.00092	502.050	598.174	2331.634	4313.403	4731.708	1121.437
542	0.542	0.00062	1661.980	391.522	3279.753	2299.175	--undefined--	--undefined--
543	0.543	0.00128	835.733	890.628	2007.503	921.482	--undefined--	--undefined--
544	0.544	0.00128	887.104	641.048	2132.356	757.829	4830.393	912.715
545	0.545	0.00077	589.005	1265.272	1715.957	989.971	2839.648	1091.295
546	0.546	0.00154	599.678	985.547	1817.391	1007.866	5081.349	1815.247
547	0.547	0.00154	650.883	1049.043	1852.046	969.105	3965.380	2712.008
548	0.548	0.00163	1240.984	1450.672	2174.790	1252.605	--undefined--	--undefined--
549	0.549	0.00163	469.209	931.802	1466.911	882.027	4704.933	618.191
550	0.550	0.00082	683.861	1264.954	1691.097	682.112	4895.322	5512.641
551	0.551	0.00155	927.599	1372.864	2009.522	787.093	4165.729	819.349
552	0.552	0.00155	755.942	580.085	2312.596	1241.097	4641.969	677.079
553	0.553	0.00114	1358.931	966.822	2142.439	980.039	--undefined--	--undefined--
554	0.554	0.00175	631.346	742.560	1857.764	644.326	4824.054	1100.560
555	0.555	0.00175	667.714	897.457	1883.110	783.938	--undefined--	--undefined--
556	0.556	0.00188	1243.095	1407.885	2220.130	1071.416	--undefined--	--undefined--
557	0.557	0.00188	511.683	1064.803	1660.376	1015.950	4720.295	964.001
558	0.558	0.00139	794.084	875.707	1792.676	632.530	3576.383	1875.072
559	0.559	0.00221	973.243	1052.726	1981.248	499.924	4422.350	1130.316
560	0.560	0.00221	717.072	858.463	2108.398	701.342	4815.025	529.659
561	0.561	0.00140	1055.456	1293.634	1532.478	1027.020	2321.026	787.899
562	0.562	0.00180	742.489	750.329	1909.629	608.798	4430.113	1495.587
563	0.563	0.00186	760.094	934.662	1936.809	734.081	--undefined--	--undefined--
564	0.564	0.00220	1599.825	886.398	2498.753	944.629	--undefined--	--undefined--
565	0.565	0.00220	504.406	1007.922	1976.067	815.012	4631.446	1288.842
566	0.566	0.00209	1222.766	970.791	2131.889	977.906	--undefined--	--undefined--
567	0.567	0.00205	903.819	744.863	1817.625	515.458	--undefined--	--undefined--
568	0.568	0.00213	871.146	801.352	1875.381	582.033	4853.030	532.098
569	0.569	0.00213	899.077	715.223	1881.855	401.930	5047.358	2360.154
570	0.570	0.00183	826.796	1138.840	1969.635	944.192	--undefined--	--undefined--
571	0.571	0.00216	1152.098	1095.585	2144.937	867.663	--undefined--	--undefined--
572	0.572	0.00216	1798.463	523.857	2840.230	735.657	--undefined--	--undefined--
573	0.573	0.00189	296.621	914.877	2376.614	662.779	4497.720	1255.620
574	0.574	0.00189	1852.997	1041.957	2686.496	1894.311	--undefined--	--undefined--
575	0.575	0.00110	1156.660	803.193	3324.856	2199.662	--undefined--	--undefined--
576	0.576	0.00151	875.234	719.408	1740.811	797.101	4760.746	984.189
577	0.577	0.00151	1929.820	861.677	2754.793	1379.263	--undefined--	--undefined--
578	0.578	0.00103	785.864	1227.453	2333.598	1549.806	--undefined--	--undefined--
579	0.579	0.00148	1184.268	971.698	2293.089	1013.019	--undefined--	--undefined--
580	0.580	0.00148	1381.788	929.067	3325.203	1092.864	--undefined--	--undefined--
581	0.581	0.00138	482.270	642.946	2722.560	798.168	--undefined--	--undefined--
582	0.582	0.00138	1843.424	1263.162	2739.048	1276.599	--undefined--	--undefined--
583	0.583	0.00109	1076.500	916.609	2937.419	909.897	--undefined--	--undefined--
584	0.584	0.00152	1111.110	997.279	2527.799	1759.351	--undefined--	--undefined--
585	0.585	0.00152	1860.191	666.044	2783.985	635.839	--undefined--	--undefined--
586	0.586	0.00133	1126.338	1021.925	2725.986	670.151	--undefined--	--undefined--
587	0.587	0.00133	1222.903	1079.139	2490.684	1879.059	--undefined--	--undefined--
588	0.588	0.00133	652.818	1095.889	1721.452	648.634	3470.678	626.238
589	0.589	0.00133	533.571	1244.884	2702.479	1016.022	--undefined--	--undefined--
590	0.590	0.00127	1639.669	1444.370	2683.138	844.380	--undefined--	--undefined--
591	0.591	0.00130	1318.118	1443.384	2822.831	963.819	--undefined--	--undefined--
592	0.592	0.00143	967.098	1100.627	2782.030	655.692	--undefined--	--undefined--
593	0.593	0.00143	1876.909	802.808	2756.041	622.915	--undefined--	--undefined--
594	0.594	0.00172	1070.068	1375.896	2507.061	909.992	3358.610	1844.485
595	0.595	0.00172	918.357	557.339	1722.656	737.981	3412.784	553.574
596	0.596	0.00162	1681.915	687.289	2783.325	1105.675	--undefined--	--undefined--
597	0.597	0.00209	1429.258	1067.361	2669.269	740.286	--undefined--	--undefined--
598	0.598	0.00209	659.431	749.767	1877.583	586.190	2949.607	460.500
599	0.599	0.00178	1455.033	1200.877	2193.020	1836.526	--undefined--	--undefined--
600	0.600	0.00178	446.733	394.660	2200.069	475.843	3178.393	407.639
601	0.601	0.00134	1966.152	835.114	2760.653	693.324	--undefined--	--undefined--
602	0.602	0.00135	1789.037	894.482	2637.664	611.467	--undefined--	--undefined--
603	0.603	0.00135	1221.525	1016.403	2532.199	1294.059	--undefined--	--undefined--
604	0.604	0.00094	1476.634	681.988	2522.486	480.681	--undefined--	--undefined--
605	0.605	0.00123	1076.979	663.609	2101.127	454.167	3039.514	461.518
606	0.606	0.00123	950.793	681.929	1846.298	756.703	3271.226	1343.491
607	0.607	0.00072	1618.084	368.857	2450.615	363.399	--undefined--	--undefined--
608	0.608	0.00072	803.396	718.633	1907.336	521.170	2926.212	469.753
609	0.609	0.00072	1311.177	639.582	2463.695	571.421	--undefined--	--undefined--
610	0.610	0.00033	1490.743	1668.006	2088.112	779.415	--undefined--	--undefined--
611	0.611	0.00019	731.626	931.963	2024.083	641.507	3147.419	548.101
612	0.612	0.00019	851.941	514.978	2819.866	455.735	--undefined--	--undefined--
613	0.613	0.00010	552.366	882.545	2870.010	516.573	--undefined--	--undefined--
614	0.614	0.00002	1425.863	1092.680	2564.574	963.491	--undefined--	--undefined--
615	0.615	0.00002	922.650	946.253	2787.852	984.266	--undefined--	--undefined--
616	0.616	0.00002	804.976	1220.866	2385.659	511.559	3373.323	469.077
617	0.617	0.00002	566.891	542.625	2579.722	698.846	3471.390	696.238
618	0.618	0.00004	465.872	670.684	2536.706	720.986	3345.013	1062.845
619	0.619	0.00004	588.803	1139.776	2485.773	468.925	3464.072	542.350
620	0.620	0.00003	847.004	942.412	1990.110	1003.296	3149.548	4255.696
621	0.621	0.00003	1023.009	680.861	2054.457	848.296	3191.356	1055.543
622	0.622	0.00004	1199.841	564.173	2138.935	631.611	3080.472	635.451
623	0.623	0.00004	1079.863	859.003	2736.735	827.663	3872.763	913.957
624	0.624	0.00002	720.790	779.349	1909.441	1735.002	3362.109	660.978
625	0.625	0.00002	952.126	638.135	1865.014	846.644	3411.313	924.820
626	0.626	0.00003	718.339	1326.184	2919.347	1476.690	3881.633	573.001
627	0.627	0.00005	612.719	383.808	2818.233	708.817	3725.911	483.048
628	0.628	0.00005	1012.228	380.420	3053.947	812.340	--undefined--	--undefined--
629	0.629	0.00006	643.111	1448.100	2500.122	772.843	3685.827	546.623
630	0.630	0.00007	670.753	810.177	1981.962	987.133	4143.229	439.212
631	0.631	0.00007	427.490	1648.812	1256.115	1333.856	3376.029	2742.120
632	0.632	0.00003	425.394	466.749	2507.123	625.976	4943.015	2453.979
633	0.633	0.00006	635.504	956.836	3077.135	722.013	4007.160	555.236
634	0.634	0.00010	519.955	1072.746	1659.615	1444.237	3318.256	1149.389
635	0.635	0.00012	417.422	1767.687	1262.934	1534.325	3552.819	673.638
636	0.636	0.00019	627.513	548.111	3090.684	1181.890	3823.384	942.207
637	0.637	0.00019	465.596	856.846	1456.399	817.326	3912.503	785.297
638	0.638	0.00013	457.310	1024.062	2164.768	2109.594	3366.851	1638.500
639	0.639	0.00010	668.573	1573.556	2960.645	619.081	4173.060	1296.057
640	0.640	0.00016	514.805	877.852	1549.366	951.812	3790.920	638.369
641	0.641	0.00016	425.169	879.014	2527.569	883.454	3497.775	748.243
642	0.642	0.00013	2628.149	1359.233	3104.798	1067.552	--undefined--	--undefined--
643	0.643	0.00017	1152.249	1094.073	2952.660	1043.829	--undefined--	--undefined--
644	0.644	0.00017	2499.248	692.914	3556.139	677.383	--undefined--	--undefined--
645	0.645	0.00009	573.092	1631.572	2617.812	546.555	3539.803	513.918
646	0.646	0.00016	1055.283	1542.424	3025.893	1344.977	--undefined--	--undefined--
647	0.647	0.00016	204.810	1204.388	2758.736	898.639	3711.122	1537.345
648	0.648	0.00006	563.439	1414.994	2674.630	813.307	3899.455	706.249
649	0.649	0.00009	488.246	703.072	1614.993	711.731	4458.172	2273.996
650	0.650	0.00009	483.549	620.821	1967.538	920.343	3216.995	553.332
651	0.651	0.00008	2641.722	1191.248	3899.474	939.291	--undefined--	--undefined--
652	0.652	0.00014	1027.052	829.993	3602.985	706.031	--undefined--	--undefined--
653	0.653	0.00014	531.694	801.687	1794.521	1179.817	3410.959	661.035
654	0.654	0.00013	1735.606	1854.697	4163.764	1594.502	--undefined--	--undefined--
655	0.655	0.00014	438.704	828.600	1506.919	1475.595	4360.962	1277.530
656	0.656	0.00016	497.834	1062.965	1415.532	1408.153	3518.411	644.543
657	0.657	0.00028	346.669	1869.753	2537.117	737.301	3665.732	708.706
658	0.658	0.00028	1120.339	1686.689	3353.606	849.157	--undefined--	--undefined--
659	0.659	0.00021	944.426	1488.040	3498.814	617.037	--undefined--	--undefined--
660	0.660	0.00067	712.202	988.237	2884.222	1147.712	3589.543	947.372
661	0.661	0.00067	1132.537	675.190	3237.365	596.389	--undefined--	--undefined--
662	0.662	0.00028	533.799	1252.714	2160.136	1666.842	3598.169	752.311
663	0.663	0.00077	933.825	680.873	2203.802	1306.717	3560.630	350.806
664	0.664	0.00077	669.496	1181.479	1554.726	948.447	3567.249	405.502
665	0.665	0.00035	2203.733	891.320	3541.058	558.640	--undefined--	--undefined--
666	0.666	0.00124	999.853	601.949	2014.662	1615.055	3826.191	536.644
667	0.667	0.00124	950.854	547.687	1897.502	735.716	3723.171	675.121
668	0.668	0.00046	1435.800	640.867	2433.788	567.382	3466.166	423.102
669	0.669	0.00136	851.779	727.084	2080.834	852.882	3417.035	611.863
670	0.670	0.00136	737.369	669.803	1996.654	768.886	3348.067	546.556
671	0.671	0.00068	1655.265	1608.868	2374.386	1101.433	3349.285	907.583
672	0.672	0.00203	670.996	1002.375	2086.166	1076.018	3373.541	835.383
673	0.673	0.00203	553.389	675.215	2192.808	1405.698	3302.273	710.132
674	0.674	0.00214	2368.901	643.497	3541.691	787.306	--undefined--	--undefined--
675	0.675	0.00214	506.530	898.777	2288.180	1137.536	3290.686	1014.871
676	0.676	0.00125	520.067	554.018	2981.342	1673.406	3183.792	1248.709
677	0.677	0.00318	1878.504	1855.317	3038.913	1367.824	--undefined--	--undefined--
678	0.678	0.00318	463.808	853.923	2715.517	506.692	--undefined--	--undefined--
679	0.679	0.00182	1175.424	1165.390	3422.898	1027.679	--undefined--	--undefined--
680	0.680	0.00410	682.743	1238.732	2316.217	1460.817	--undefined--	--undefined--
681	0.681	0.00410	700.542	987.471	2235.818	1007.284	--undefined--	--undefined--
682	0.682	0.00213	1393.866	679.919	3663.249	2095.102	--undefined--	--undefined--
683	0.683	0.00443	950.578	715.706	3184.655	1306.129	--undefined--	--undefined--
684	0.684	0.00443	946.739	595.383	1913.335	659.375	4863.990	1544.625
685	0.685	0.00302	1426.301	1121.109	2885.744	1753.298	--undefined--	--undefined--
686	0.686	0.00711	1059.995	606.103	2936.790	1207.711	--undefined--	--undefined--
687	0.687	0.00711	1314.975	1160.113	2568.270	1647.773	--undefined--	--undefined--
688	0.688	0.00375	1503.210	824.674	2874.314	809.396	--undefined--	--undefined--
689	0.689	0.00885	1309.601	1196.495	2856.626	1105.661	--undefined--	--undefined--
690	0.690	0.00885	1296.810	963.709	2575.156	886.844	--undefined--	--undefined--
691	0.691	0.01003	1829.622	900.564	2935.645	698.052	--undefined--	--undefined--
692	0.692	0.01003	1354.159	934.673	2769.346	745.986	--undefined--	--undefined--
693	0.693	0.00664	1334.057	997.785	2668.658	778.037	--undefined--	--undefined--
694	0.694	0.01129	2144.962	821.738	3085.600	1016.575	--undefined--	--undefined--
695	0.695	0.01129	1356.061	1433.601	2785.584	1004.991	--undefined--	--undefined--
696	0.696	0.00477	909.586	1838.648	2642.116	873.473	4206.079	8901.549
697	0.697	0.01280	1793.443	1148.466	2885.726	1005.577	--undefined--	--undefined--
698	0.698	0.01280	874.726	775.696	2381.170	900.967	3810.188	1412.463
699	0.699	0.00327	411.480	1352.535	2541.797	577.973	--undefined--	--undefined--
700	0.700	0.01511	714.636	1029.277	2196.681	1210.237	3493.822	1610.592
701	0.701	0.01511	673.171	621.790	2391.281	631.146	4058.930	682.906
702	0.702	0.00419	718.802	1147.406	2238.015	603.833	4874.443	1199.020
703	0.703	0.01318	824.143	422.020	2256.090	761.936	3972.485	941.762
704	0.704	0.01318	543.254	605.408	2111.896	717.433	4210.613	588.713
705	0.705	0.00338	1015.444	867.474	2173.169	553.874	4692.010	781.584
706	0.706	0.01515	933.559	422.857	2391.175	1693.215	4138.190	1027.499
707	0.707	0.01515	598.272	705.254	1920.840	588.092	4193.931	645.280
708	0.708	0.00316	886.320	940.860	2095.691	513.388	4375.929	901.514
709	0.709	0.01461	917.867	772.679	2507.208	1483.395	4562.995	1934.265
710	0.710	0.01461	719.769	1224.764	1935.833	1054.909	4412.515	1227.464
711	0.711	0.00323	802.528	1139.742	2135.957	580.438	4028.384	1409.419
712	0.712	0.01929	1285.934	1151.041	2850.360	994.666	--undefined--	--undefined--
713	0.713	0.01929	873.850	1445.474	2572.899	1097.992	4481.934	628.815
714	0.714	0.00179	755.332	1753.084	2117.413	796.404	3652.706	1821.557
715	0.715	0.01218	798.722	1238.623	2088.156	1477.510	3781.674	1795.649
716	0.716	0.01218	1028.443	576.362	2098.464	603.070	4498.696	889.668
717	0.717	0.00387	2046.063	936.947	2879.541	2448.779	--undefined--	--undefined--
718	0.718	0.01526	852.159	1543.222	2148.700	1707.484	4782.752	3376.042
719	0.719	0.01526	1096.787	587.378	2116.081	656.507	4741.838	737.729
720	0.720	0.00765	2016.657	783.832	2981.062	1538.725	--undefined--	--undefined--
721	0.721	0.01267	799.724	1246.313	2102.402	1323.907	3715.894	1604.081
722	0.722	0.01267	1114.077	602.652	2220.039	657.410	4816.427	1336.211
723	0.723	0.01238	2099.349	714.175	3193.007	1745.923	--undefined--	--undefined--
724	0.724	0.01238	954.303	1604.864	2417.157	1883.323	--undefined--	--undefined--
725	0.725	0.00660	1070.064	650.030	2237.309	649.274	4390.031	1517.607
726	0.726	0.01599	2125.395	609.109	3530.216	1433.640	--undefined--	--undefined--
727	0.727	0.01599	885.784	1327.231	2170.518	1407.873	4933.870	2669.391
728	0.728	0.00353	1065.476	761.365	2213.132	674.852	4859.827	1515.500
729	0.729	0.01248	2055.315	565.882	3427.924	1051.408	--undefined--	--undefined--
730	0.730	0.01248	851.229	1092.666	2128.291	1126.012	4233.735	2033.360
731	0.731	0.00462	1062.999	893.138	2234.290	805.159	4847.431	1633.509
732	0.732	0.00977	2093.203	589.608	3519.730	1086.243	--undefined--	--undefined--
733	0.733	0.00977	851.041	1031.844	2094.484	1055.310	4046.307	2237.546
734	0.734	0.00393	1061.517	997.367	2235.213	935.029	5016.925	2443.820
735	0.735	0.00827	2040.450	639.064	3229.863	1063.970	--undefined--	--undefined--
736	0.736	0.00827	831.034	890.239	2019.174	844.878	4317.731	1989.142
737	0.737	0.00357	978.912	907.835	2115.517	796.703	4856.110	1711.191
738	0.738	0.00939	1909.464	610.886	3005.210	958.994	--undefined--	--undefined--
739	0.739	0.00939	951.984	1280.190	2246.922	1457.566	3356.342	4248.109
740	0.740	0.00333	964.412	961.137	2152.126	903.310	5088.948	2256.847
741	0.741	0.01094	1905.992	610.075	3080.213	832.430	--undefined--	--undefined--
742	0.742	0.01094	890.126	1133.980	2144.905	1189.285	4727.033	3472.134
743	0.743	0.00419	962.115	921.104	2131.630	850.997	4836.181	1601.872
744	0.744	0.01124	1943.674	824.635	3226.371	1134.694	--undefined--	--undefined--
745	0.745	0.01124	878.371	1270.895	2159.251	1413.560	4830.547	3478.705
746	0.746	0.00397	908.219	804.549	2093.987	784.683	4638.566	1400.800
747	0.747	0.00972	1003.415	1747.125	2296.099	734.778	3543.284	708.856
748	0.748	0.00972	865.972	1363.282	2165.371	1541.376	--undefined--	--undefined--
749	0.749	0.00620	892.126	687.285	2071.086	713.061	4488.788	1168.056
750	0.750	0.00439	1382.827	1128.164	2586.754	907.380	3711.080	1219.091
751	0.751	0.01019	796.574	1296.685	2039.420	1653.003	3854.354	1913.998
752	0.752	0.01019	938.346	702.127	2117.333	906.475	4679.554	1097.219
753	0.753	0.00282	1248.601	612.051	2704.002	508.957	3939.606	802.637
754	0.754	0.00843	972.708	1487.332	3002.204	2573.306	--undefined--	--undefined--
755	0.755	0.00843	915.880	540.358	1993.334	1114.975	4431.678	592.473
756	0.756	0.00273	1124.628	339.929	3001.196	730.324	4672.878	1600.694
757	0.757	0.01273	784.422	1151.291	1871.132	1571.864	3869.598	1271.851
758	0.758	0.01273	983.127	543.093	2563.471	1814.189	4642.163	1154.493
759	0.759	0.00241	1148.367	462.134	2578.496	833.757	3913.548	1662.915
760	0.760	0.00906	927.629	911.848	3401.413	1237.814	--undefined--	--undefined--
761	0.761	0.00906	905.240	392.948	2861.193	2510.643	4136.831	941.777
762	0.762	0.00265	1155.796	540.908	2383.792	874.255	3692.669	1677.558
763	0.763	0.01115	930.320	674.288	3395.374	962.024	--undefined--	--undefined--
764	0.764	0.01115	786.341	453.260	2860.949	1573.288	3991.652	1012.783
765	0.765	0.00376	1216.949	705.427	2439.212	833.182	4485.589	3734.029
766	0.766	0.01068	909.478	452.420	2728.961	2229.814	3671.011	989.762
767	0.767	0.01068	819.953	914.621	2570.029	3017.200	3884.750	1159.120
768	0.768	0.00297	1256.378	1005.257	2200.965	2294.235	2796.048	1326.775
769	0.769	0.00940	947.050	555.218	2190.918	1714.340	3466.037	698.932
770	0.770	0.00940	1144.575	1237.080	3710.523	1018.916	--undefined--	--undefined--
771	0.771	0.00287	1080.174	1012.630	1981.027	1205.690	3331.313	1402.493
772	0.772	0.00890	1140.872	744.352	3139.335	914.950	--undefined--	--undefined--
773	0.773	0.00890	1243.571	693.073	3786.229	941.442	--undefined--	--undefined--
774	0.774	0.00345	1201.808	881.585	1918.531	1929.166	3855.668	1172.822
775	0.775	0.00963	1189.158	761.612	3312.808	388.028	--undefined--	--undefined--
776	0.776	0.00963	899.097	1055.164	1528.957	921.056	3790.868	884.199
777	0.777	0.00426	1199.522	684.422	1784.432	1710.204	3906.365	705.982
778	0.778	0.01178	1094.502	877.695	3263.653	472.300	--undefined--	--undefined--
779	0.779	0.01178	1078.329	609.312	2092.463	1019.009	--undefined--	--undefined--
780	0.780	0.00489	920.037	1294.412	1594.828	1025.848	4261.227	1135.121
781	0.781	0.00847	832.890	1134.419	1472.341	2198.200	3430.311	646.643
782	0.782	0.00847	1013.222	1185.686	2099.164	1871.930	3332.602	2523.814
783	0.783	0.00525	1169.743	1099.251	2643.485	1376.069	--undefined--	--undefined--
784	0.784	0.00239	1128.575	623.674	1631.457	3530.681	3511.266	739.976
785	0.785	0.01071	771.639	1557.612	2631.890	2183.786	3993.799	4133.051
786	0.786	0.01071	721.511	547.344	2625.114	1124.326	4308.702	1280.929
787	0.787	0.00293	1196.897	624.804	1747.861	1815.240	3517.461	758.784
788	0.788	0.01043	619.858	678.849	2664.679	997.859	3937.650	1635.992
789	0.789	0.01043	947.262	625.413	2734.956	997.475	4344.074	1385.701
790	0.790	0.00326	1356.289	511.253	2558.187	729.252	--undefined--	--undefined--
791	0.791	0.00761	957.931	824.606	2750.515	540.019	--undefined--	--undefined--
792	0.792	0.00761	816.754	901.380	1919.018	1005.768	3813.514	1112.412
793	0.793	0.00240	1013.426	807.600	1980.357	828.942	3249.682	903.016
794	0.794	0.00927	1123.049	503.363	2655.868	693.326	--undefined--	--undefined--
795	0.795	0.00927	733.508	544.612	1734.873	390.632	4085.278	681.005
796	0.796	0.00432	1056.428	654.713	1949.690	772.194	3974.697	1111.420
797	0.797	0.00393	1007.449	629.497	3203.640	647.807	--undefined--	--undefined--
798	0.798	0.00460	942.299	416.814	1888.932	402.601	4158.477	1087.390
799	0.799	0.00460	669.952	808.027	1664.246	749.086	4567.775	512.138
800	0.800	0.00141	787.884	939.532	1764.758	957.517	3378.579	969.965
801	0.801	0.00616	727.371	1278.789	2091.570	1118.051	4052.350	1814.499
802	0.802	0.00616	603.403	493.384	2398.638	1277.941	4489.481	787.891
803	0.803	0.00163	1022.819	365.188	1805.260	337.480	3549.970	686.154
804	0.804	0.00470	2383.326	659.657	--undefined--	--undefined--	--undefined--	--undefined--
805	0.805	0.00470	1062.052	819.625	2216.167	1096.021	4092.248	1131.704
806	0.806	0.00181	1081.167	677.321	1986.682	679.730	3313.936	981.710
807	0.807	0.00605	892.859	554.908	2357.090	551.538	--undefined--	--undefined--
808	0.808	0.00605	760.978	684.717	1754.576	480.747	4132.198	643.443
809	0.809	0.00286	1084.657	565.405	2019.654	635.479	4025.100	1292.091
810	0.810	0.00572	584.278	716.476	2136.732	1259.347	3418.411	844.958
811	0.811	0.00572	1008.157	631.034	2033.042	655.820	4733.436	2547.108
812	0.812	0.00304	689.087	809.670	1919.918	706.263	4286.081	1059.243
813	0.813	0.00201	990.160	1126.444	1899.857	1096.503	3427.160	2165.291
814	0.814	0.00426	2113.109	4677.016	2321.960	1846.410	--undefined--	--undefined--
815	0.815	0.00426	863.673	813.846	2545.239	779.992	4413.561	1915.644
816	0.816	0.00143	1301.008	539.697	2208.819	607.360	--undefined--	--undefined--
817	0.817	0.00756	649.760	1263.919	2508.285	529.550	--undefined--	--undefined--
818	0.818	0.00756	765.509	882.414	1841.438	742.048	3906.973	730.068
819	0.819	0.00289	986.447	739.794	1941.961	756.942	3382.196	1251.368
820	0.820	0.00673	205.416	1212.744	2598.153	873.710	3743.593	2122.548
821	0.821	0.00673	1051.132	710.711	2057.930	816.354	--undefined--	--undefined--
822	0.822	0.00498	778.729	1288.394	1819.973	1170.421	--undefined--	--undefined--
823	0.823	0.00330	1251.603	595.230	2425.611	786.859	--undefined--	--undefined--
824	0.824	0.00742	768.949	1721.550	2337.749	1659.849	3830.870	2400.576
825	0.825	0.00742	957.312	701.258	2515.823	881.364	3928.456	1106.977
826	0.826	0.00430	1099.544	639.395	1962.602	863.765	3160.136	1741.736
827	0.827	0.00566	985.629	1427.073	2277.954	1381.797	--undefined--	--undefined--
828	0.828	0.00566	779.278	589.613	1756.305	419.137	4073.115	875.008
829	0.829	0.00391	965.721	540.873	1861.307	591.499	3448.164	1169.941
830	0.830	0.00341	623.414	634.067	2186.535	1229.321	3322.752	780.566
831	0.831	0.00640	877.362	1312.336	2073.233	1073.925	3758.953	1644.216
832	0.832	0.00640	582.603	504.047	2535.196	1062.910	4286.343	1602.778
833	0.833	0.00386	1142.408	675.725	2006.228	576.493	--undefined--	--undefined--
834	0.834	0.00685	1429.364	1372.212	1944.189	999.498	4351.138	1925.382
835	0.835	0.00685	891.873	966.237	1908.502	860.972	3991.568	1235.581
836	0.836	0.00329	986.916	860.985	2001.751	862.968	3490.576	1093.310
837	0.837	0.00706	640.217	1139.122	2020.008	2352.350	3224.283	1034.652
838	0.838	0.00706	942.684	965.152	1991.936	846.152	4026.200	1545.055
839	0.839	0.00442	518.607	627.508	2008.602	1308.552	4202.811	674.272
840	0.840	0.00305	1117.640	586.158	1946.699	770.031	2865.908	1046.679
841	0.841	0.00583	1543.270	670.623	2458.878	636.373	3582.262	800.536
842	0.842	0.00583	949.080	988.888	2001.826	965.196	3761.326	1380.588
843	0.843	0.00245	949.381	820.304	1935.964	739.649	3350.944	1087.491
844	0.844	0.00551	2023.481	596.054	3555.389	1761.404	--undefined--	--undefined--
845	0.845	0.00566	920.999	965.525	1944.904	756.913	3908.826	2473.186
846	0.846	0.00566	461.630	776.770	2228.499	456.664	--undefined--	--undefined--
847	0.847	0.00259	1058.422	579.727	1875.751	598.234	2765.929	659.112
848	0.848	0.00662	1664.204	598.896	2468.105	628.013	--undefined--	--undefined--
849	0.849	0.00662	874.126	774.443	1920.260	593.897	3848.385	2076.524
850	0.850	0.00328	1112.647	898.234	2092.424	966.971	3439.104	3846.238
851	0.851	0.00328	2018.484	1318.523	2486.638	1243.546	--undefined--	--undefined--
852	0.852	0.00651	963.363	1101.512	2010.835	899.456	3916.716	1718.006
853	0.853	0.00651	469.298	812.704	2178.697	367.837	4342.123	1073.152
854	0.854	0.00287	1301.737	508.276	2210.806	449.023	--undefined--	--undefined--
855	0.855	0.00724	1425.375	894.801	2174.614	718.632	3761.628	1554.073
856	0.856	0.00724	959.720	563.115	1905.404	481.591	4157.118	1569.097
857	0.857	0.00541	1186.714	646.711	2236.289	738.041	2727.526	4284.109
858	0.858	0.00400	1548.089	1289.054	2501.035	1118.404	--undefined--	--undefined--
859	0.859	0.00726	1164.360	594.127	2126.027	582.613	4058.226	1780.925
860	0.860	0.00726	1175.271	848.262	2269.163	888.054	4222.937	1733.657
861	0.861	0.00383	1155.267	624.041	2086.607	654.401	3181.939	4441.618
862	0.862	0.00945	1492.814	597.535	2345.433	352.877	--undefined--	--undefined--
863	0.863	0.00945	943.980	652.048	1932.889	531.285	4916.107	2178.342
864	0.864	0.00509	697.730	1049.397	2039.071	659.730	3970.163	2825.839
865	0.865	0.00378	1284.282	601.804	2308.477	634.448	--undefined--	--undefined--
866	0.866	0.00913	1118.777	1748.535	2013.220	646.508	3682.065	3228.908
867	0.867	0.00913	816.212	613.649	1838.055	437.392	3961.923	1019.559
868	0.868	0.00385	1014.079	796.724	1947.526	813.332	3083.544	1801.596
869	0.869	0.00385	1634.999	916.758	2439.338	731.414	--undefined--	--undefined--
870	0.870	0.00857	1154.699	964.085	2126.664	1099.164	4215.760	1963.938
871	0.871	0.00857	972.106	889.731	2161.938	675.786	4055.442	989.007
872	0.872	0.00407	1228.328	458.159	2131.101	411.856	--undefined--	--undefined--
873	0.873	0.00875	1725.314	970.122	2544.770	1141.835	--undefined--	--undefined--
874	0.874	0.00875	999.869	741.939	1990.446	652.001	5425.195	3249.090
875	0.875	0.00524	614.744	1239.045	2040.154	409.342	4526.000	1313.076
876	0.876	0.00363	1065.476	594.758	1884.853	666.989	2725.556	740.691
877	0.877	0.00973	1412.729	381.883	2223.834	494.845	4679.490	2036.726
878	0.878	0.00973	893.642	532.659	1850.065	376.426	4113.143	932.713
879	0.879	0.00509	1183.703	590.485	2133.726	691.401	3961.714	2280.633
880	0.880	0.00387	1021.722	1376.762	1972.840	850.145	2887.812	1755.262
881	0.881	0.00994	1260.134	622.399	2150.482	732.061	4030.570	2828.092
882	0.882	0.00994	1247.203	720.658	2212.442	828.296	4018.144	1189.874
883	0.883	0.00459	1056.723	827.827	1971.908	769.843	2877.581	2192.945
884	0.884	0.00287	1624.801	447.647	2419.572	444.825	--undefined--	--undefined--
885	0.885	0.01159	1057.798	869.831	2040.450	874.720	3789.932	1510.744
886	0.886	0.01159	1535.102	1172.326	2083.544	653.040	4291.902	969.686
887	0.887	0.00543	1184.478	609.306	2097.417	656.500	3339.820	3836.123
888	0.888	0.01129	1323.183	861.445	2281.596	829.281	2475.332	5233.038
889	0.889	0.01129	931.579	674.200	1928.925	552.685	4222.083	1477.857
890	0.890	0.00587	849.510	979.408	1970.397	515.221	4506.978	1811.977
891	0.891	0.00471	1023.865	649.255	1867.615	606.134	2754.859	582.747
892	0.892	0.01126	1258.317	505.079	2124.801	856.639	2590.353	1441.236
893	0.893	0.01126	995.012	420.454	1895.068	386.036	4369.199	1123.938
894	0.894	0.00487	1214.943	807.952	2218.668	721.859	--undefined--	--undefined--
895	0.895	0.00398	1157.963	1008.958	2042.077	1313.028	2653.894	1255.058
896	0.896	0.00949	1060.289	666.807	1947.647	555.776	--undefined--	--undefined--
897	0.897	0.00949	839.795	673.213	1850.626	470.271	4312.906	695.483
898	0.898	0.00385	1085.321	570.909	2026.238	649.188	3493.707	1705.048
899	0.899	0.00385	758.397	4120.653	2086.331	654.796	--undefined--	--undefined--
900	0.900	0.01054	846.931	515.115	1736.100	354.802	4362.203	2115.035
901	0.901	0.01054	910.694	936.882	1976.198	714.269	4179.045	709.548
902	0.902	0.00253	958.413	710.742	1914.051	599.169	3797.309	1293.473
903	0.903	0.00232	355.178	831.080	2120.751	289.705	4014.792	756.097
904	0.904	0.00885	969.815	577.024	1740.539	644.162	3985.953	752.097
905	0.905	0.00885	1143.149	1213.300	2204.429	1303.209	4087.536	702.867
906	0.906	0.00228	939.073	633.588	1883.785	495.592	4055.760	928.638
907	0.907	0.00132	425.889	979.527	2129.386	510.005	4114.336	1312.651
908	0.908	0.00729	1072.834	663.406	1852.279	973.250	4419.550	1043.589
909	0.909	0.00729	1310.921	1994.584	2165.529	1304.832	4092.581	799.920
910	0.910	0.00221	996.391	564.558	1893.041	467.573	4150.598	913.989
911	0.911	0.00111	781.569	1344.583	2034.023	753.732	4320.838	1601.118
912	0.912	0.00601	964.970	718.879	1777.086	949.729	3955.363	782.418
913	0.913	0.00601	728.852	1999.457	2534.163	1320.061	4139.699	774.885
914	0.914	0.00155	990.494	817.508	1792.824	677.537	4184.082	605.325
915	0.915	0.00103	869.152	728.879	1995.900	737.777	3560.470	831.162
916	0.916	0.00627	1043.403	826.332	1811.413	1623.630	3908.573	886.944
917	0.917	0.00627	770.766	1918.850	2613.939	1609.632	4193.573	790.462
918	0.918	0.00151	903.723	627.515	1798.675	500.572	3942.231	662.660
919	0.919	0.00118	935.688	786.794	2367.227	1463.406	3973.256	1340.752
920	0.920	0.00739	1198.513	655.965	3377.942	1939.268	--undefined--	--undefined--
921	0.921	0.00739	763.017	1398.265	2683.945	1442.574	4185.525	842.025
922	0.922	0.00157	890.518	735.489	1779.737	560.783	4048.731	812.335
923	0.923	0.00122	790.496	773.881	2238.948	856.033	3645.965	830.383
924	0.924	0.00422	1146.489	478.877	3377.984	1124.628	--undefined--	--undefined--
925	0.925	0.00422	758.596	863.613	2768.578	1461.045	4086.193	791.619
926	0.926	0.00173	820.226	856.880	1703.599	592.928	4032.842	643.082
927	0.927	0.00119	697.143	752.830	2317.708	1248.833	3753.480	889.719
928	0.928	0.00347	1072.773	460.051	2963.489	1227.986	--undefined--	--undefined--
929	0.929	0.00347	849.083	1237.098	1881.926	2180.337	4010.781	762.663
930	0.930	0.00174	886.849	1155.299	1665.906	816.948	4457.831	1103.939
931	0.931	0.00143	747.186	824.505	3238.507	1005.977	--undefined--	--undefined--
932	0.932	0.00472	1070.222	772.300	2538.913	1211.871	--undefined--	--undefined--
933	0.933	0.00472	826.473	1434.546	1697.098	1433.204	4134.465	618.314
934	0.934	0.00292	1063.582	753.511	1931.084	1023.932	4160.594	1340.878
935	0.935	0.00157	693.995	864.675	1721.522	1020.401	3947.951	673.529
936	0.936	0.00604	1091.806	1139.308	2187.139	1285.568	--undefined--	--undefined--
937	0.937	0.00604	932.879	1265.843	1555.777	937.852	4404.190	534.143
938	0.938	0.00349	1220.076	722.607	2393.779	869.677	--undefined--	--undefined--
939	0.939	0.00183	908.690	492.732	1830.816	405.911	4155.646	1182.833
940	0.940	0.00542	1160.635	968.927	2184.021	986.974	--undefined--	--undefined--
941	0.941	0.00542	1195.703	954.212	1412.928	1381.337	4372.545	487.287
942	0.942	0.00392	663.182	702.738	2022.428	937.452	4522.212	1035.182
943	0.943	0.00113	982.208	529.899	1917.628	496.600	4524.213	1338.889
944	0.944	0.00530	991.352	458.737	1875.212	458.803	--undefined--	--undefined--
945	0.945	0.00530	169.752	2777.494	1386.355	1087.741	4334.182	976.726
946	0.946	0.00363	584.834	438.763	3174.868	2074.015	4151.825	789.618
947	0.947	0.00100	1008.907	675.505	1985.891	695.263	3899.859	1471.294
948	0.948	0.00134	867.366	593.384	1848.903	544.509	4283.057	1401.815
949	0.949	0.00311	735.787	960.202	2345.918	2287.453	4097.527	1609.685
950	0.950	0.00311	1117.218	642.154	2454.367	4378.649	4065.879	628.959
951	0.951	0.00110	974.987	723.121	1875.942	748.217	3906.613	934.815
952	0.952	0.00103	996.579	5224.696	1035.635	448.548	3789.669	816.867
953	0.953	0.00423	987.200	538.294	2563.148	1237.653	--undefined--	--undefined--
954	0.954	0.00423	899.165	1481.430	1656.091	1442.081	4143.849	726.837
955	0.955	0.00096	951.246	955.615	1758.520	893.708	3927.016	1192.104
956	0.956	0.00102	852.804	1224.333	1762.376	1192.841	4107.741	1546.080
957	0.957	0.00331	686.387	1080.620	1735.225	973.614	3559.571	2220.292
958	0.958	0.00370	1021.488	851.444	1692.522	952.373	4407.471	519.408
959	0.959	0.00370	703.608	1235.907	2227.956	1028.454	4629.672	1318.262
960	0.960	0.00129	1053.102	507.660	1917.993	523.816	4519.316	3325.734
961	0.961	0.00211	1074.412	850.199	2051.277	1229.896	--undefined--	--undefined--
962	0.962	0.00337	692.872	1128.518	1862.299	1034.604	4264.307	744.055
963	0.963	0.00337	1776.142	1098.979	4363.236	953.428	--undefined--	--undefined--
964	0.964	0.00147	1159.901	675.691	2116.278	819.452	2984.863	2707.682
965	0.965	0.00138	609.612	414.425	2314.088	505.124	4305.206	773.146
966	0.966	0.00399	425.111	1367.867	2465.014	742.862	4134.263	1326.361
967	0.967	0.00399	1131.586	873.223	2092.507	1528.269	4083.483	688.542
968	0.968	0.00148	885.738	655.892	1819.598	464.379	3757.917	1265.394
969	0.969	0.00148	1183.130	768.314	2279.381	909.593	4954.809	2558.927
970	0.970	0.00270	1282.030	604.449	2298.967	529.624	--undefined--	--undefined--
971	0.971	0.00332	1059.087	1020.674	1701.889	951.742	4357.321	542.771
972	0.972	0.00332	956.846	932.098	2052.310	710.281	4041.048	883.793
973	0.973	0.00218	1052.916	545.899	1959.000	473.179	4079.617	1391.919
974	0.974	0.00157	1026.348	831.716	1993.712	788.320	3978.679	2001.845
975	0.975	0.00364	789.601	1101.970	1979.429	816.313	4133.882	900.760
976	0.976	0.00364	1819.903	515.501	4278.174	989.699	--undefined--	--undefined--
977	0.977	0.00197	1120.766	565.806	1975.157	674.491	2948.554	955.320
978	0.978	0.00160	1937.776	882.439	2153.873	1318.070	--undefined--	--undefined--
979	0.979	0.00507	1498.274	574.901	2243.861	568.865	4454.877	1426.856
980	0.980	0.00507	976.478	1031.464	2000.147	979.628	4037.666	768.397
981	0.981	0.00219	977.845	461.206	1882.239	394.180	3709.236	810.336
982	0.982	0.00181	1260.114	798.805	2154.750	687.086	3862.921	970.462
983	0.983	0.00457	1332.543	862.694	2357.709	828.714	--undefined--	--undefined--
984	0.984	0.00498	957.819	660.387	1841.500	589.802	4396.953	573.015
985	0.985	0.00498	715.063	1155.756	2004.820	604.218	4480.327	832.860
986	0.986	0.00231	1169.046	677.655	2112.195	669.911	4041.881	3862.452
987	0.987	0.00150	1085.551	597.586	1986.722	479.273	--undefined--	--undefined--
988	0.988	0.00593	1144.352	1315.679	2144.418	937.347	3835.463	1082.858
989	0.989	0.00593	1281.169	869.544	2121.833	1613.262	4162.715	670.517
990	0.990	0.00267	947.609	764.344	1868.872	622.247	3841.371	1607.541
991	0.991	0.00156	973.279	3389.817	2111.397	602.721	3856.437	1398.433
992	0.992	0.00811	1283.813	759.483	2145.514	540.120	--undefined--	--undefined--
993	0.993	0.00811	967.787	630.976	1829.661	589.713	4361.578	540.145
994	0.994	0.00470	923.764	859.378	2014.753	682.303	4181.932	1203.532
995	0.995	0.00211	1088.974	550.698	2006.551	552.664	4067.405	1172.804
996	0.996	0.00164	1023.497	482.056	1924.622	508.466	3555.782	1561.350
997	0.997	0.00848	990.640	1663.187	2025.057	1374.099	4012.799	1772.258
998	0.998	0.00848	1620.472	883.305	4031.802	1058.935	--undefined--	--undefined--
999	0.999	0.00219	1106.898	596.980	1989.597	730.848	3966.805	964.810
1000	1.000	0.00208	1235.712	1080.497	2308.747	845.203	3697.902	1440.843
1001	1.001	0.00726	901.136	815.767	1825.112	447.999	3416.338	1639.948
1002	1.002	0.00726	890.551	830.806	1778.678	649.406	4392.479	574.366
1003	1.003	0.00443	1035.642	683.156	2087.171	718.816	4001.744	806.839
1004	1.004	0.00147	978.111	828.778	1871.881	716.142	4132.840	1134.636
1005	1.005	0.00165	1020.844	770.527	1935.169	833.562	4606.987	4547.083
1006	1.006	0.00683	914.450	1256.994	2050.822	994.663	3953.367	1191.695
1007	1.007	0.00683	1560.218	830.268	4088.995	846.584	--undefined--	--undefined--
1008	1.008	0.00157	1097.545	509.955	1988.336	608.494	3471.325	1031.106
1009	1.009	0.00157	541.370	1528.084	2310.881	550.394	3981.551	1211.019
1010	1.010	0.00579	1286.040	455.575	2073.665	343.086	--undefined--	--undefined--
1011	1.011	0.00579	910.950	802.038	1792.292	644.174	4372.518	595.575
1012	1.012	0.00370	1025.144	712.137	2072.249	667.071	4059.098	868.702
1013	1.013	0.00114	965.826	759.623	1889.074	621.064	4138.198	1004.864
1014	1.014	0.00140	947.632	686.227	1886.752	667.296	3682.494	2099.599
1015	1.015	0.00621	1155.065	1477.500	2025.683	1357.427	4032.536	2178.458
1016	1.016	0.00621	1428.953	2973.081	1577.246	1070.312	4115.747	793.169
1017	1.017	0.00120	1123.320	613.229	1985.192	716.844	4106.108	979.086
1018	1.018	0.00133	674.203	2350.705	2205.331	518.058	3835.906	958.573
1019	1.019	0.00705	1231.378	809.365	1864.760	4868.831	2058.243	696.279
1020	1.020	0.00705	988.164	592.429	1859.611	597.761	4252.935	532.836
1021	1.021	0.00374	872.446	738.329	1993.292	504.312	4204.035	850.461
1022	1.022	0.00125	1108.261	699.430	2036.869	736.803	4167.453	828.992
1023	1.023	0.00158	982.804	425.650	1885.448	398.417	4173.268	924.876
1024	1.024	0.00573	1225.246	906.341	2148.285	1088.086	--undefined--	--undefined--
1025	1.025	0.00573	1244.753	796.263	2345.683	1376.925	4092.228	746.230
1026	1.026	0.00096	1038.115	1356.970	1667.332	846.699	4225.059	710.356
1027	1.027	0.00093	1059.527	2657.817	2213.526	655.483	3843.948	753.664
1028	1.028	0.00549	791.215	1001.629	1865.656	634.670	4226.259	3109.187
1029	1.029	0.00549	996.615	840.332	1798.896	814.138	4503.159	653.993
1030	1.030	0.00264	153.973	1810.783	1902.044	929.384	4269.236	504.711
1031	1.031	0.00081	1182.257	481.948	2138.196	500.696	4439.116	916.371
1032	1.032	0.00090	930.384	641.770	1907.527	570.802	4170.126	870.178
1033	1.033	0.00467	1079.429	438.925	1886.105	336.582	4500.373	557.558
1034	1.034	0.00467	871.561	1213.276	1819.355	1026.967	4152.637	619.525
1035	1.035	0.00079	1119.811	692.379	2012.076	1067.423	3992.983	748.809
1036	1.036	0.00060	1524.979	1041.101	3987.987	710.697	--undefined--	--undefined--
1037	1.037	0.00057	693.485	950.199	1806.484	835.083	3744.684	1563.836
1038	1.038	0.00446	857.911	1638.152	1806.489	1473.974	4256.529	1530.356
1039	1.039	0.00446	1707.283	1004.302	4025.961	588.375	--undefined--	--undefined--
1040	1.040	0.00064	1179.012	661.098	2126.399	895.315	3986.372	697.569
1041	1.041	0.00067	582.897	2424.060	2079.027	681.534	4232.936	832.593
1042	1.042	0.00382	833.739	985.321	1831.826	460.602	--undefined--	--undefined--
1043	1.043	0.00382	1113.426	770.618	1802.172	1101.726	4377.077	618.215
1044	1.044	0.00217	728.049	833.027	1904.913	574.254	4169.116	462.877
1045	1.045	0.00081	1280.650	668.124	2125.978	942.091	4394.092	667.672
1046	1.046	0.00091	982.868	404.208	1880.225	359.106	4160.950	808.875
1047	1.047	0.00407	1509.464	630.287	1702.941	2032.719	4501.701	1136.362
1048	1.048	0.00407	971.793	1305.706	1916.992	1363.046	4058.604	672.594
1049	1.049	0.00072	1065.478	784.855	1931.581	981.242	3975.475	637.264
1050	1.050	0.00087	1686.534	682.847	2786.836	4960.528	3968.826	1009.918
1051	1.051	0.00087	751.474	1410.811	1720.871	1185.057	2944.295	1786.126
1052	1.052	0.00288	855.728	1585.138	1805.128	1464.985	4239.692	1508.706
1053	1.053	0.00288	751.568	2047.675	2393.211	5740.850	4094.700	865.612
1054	1.054	0.00045	1050.363	985.252	1976.174	1052.114	3970.537	695.150
1055	1.055	0.00081	1098.322	1001.978	2205.850	756.295	4098.518	841.075
1056	1.056	0.00269	967.299	568.033	1841.155	421.868	--undefined--	--undefined--
1057	1.057	0.00269	968.551	686.351	1816.028	692.513	4365.830	522.744
1058	1.058	0.00137	381.896	1640.795	1808.253	1399.245	4299.401	502.816
1059	1.059	0.00053	1466.389	408.600	2417.555	479.307	4725.477	1016.108
1060	1.060	0.00057	1001.650	585.900	1907.872	542.961	4697.888	1862.901
1061	1.061	0.00336	1253.046	469.523	2261.309	1005.062	4388.866	1792.727
1062	1.062	0.00336	797.921	1104.556	1643.652	763.754	4203.722	440.450
1063	1.063	0.00183	976.647	735.326	2046.330	903.903	4048.805	730.406
1064	1.064	0.00029	1402.565	539.615	3121.880	2448.385	4119.186	727.944
1065	1.065	0.00046	749.668	927.733	1720.278	778.929	3923.503	1438.440
1066	1.066	0.00247	1249.194	515.319	3113.460	965.736	--undefined--	--undefined--
1067	1.067	0.00247	1000.287	1084.863	2022.785	1421.778	4011.414	708.774
1068	1.068	0.00044	1164.719	2370.280	1336.094	940.594	3960.247	701.488
1069	1.069	0.00044	1846.115	937.299	3201.112	1081.864	4168.706	775.674
1070	1.070	0.00044	491.868	3153.536	1378.081	1784.622	3623.048	2866.200
1071	1.071	0.00246	1147.628	1555.129	2229.882	2923.915	3672.511	3011.782
1072	1.072	0.00246	1124.182	821.483	2496.381	1884.337	4055.991	769.412
1073	1.073	0.00049	1432.856	778.049	3979.143	1109.428	--undefined--	--undefined--
1074	1.074	0.00035	1623.519	452.746	2756.377	867.052	4247.506	843.370
1075	1.075	0.00062	1283.597	1696.710	2271.558	2063.686	--undefined--	--undefined--
1076	1.076	0.00300	886.949	1782.144	1790.495	1679.175	4179.349	1556.349
1077	1.077	0.00300	763.016	1247.523	3942.600	615.939	--undefined--	--undefined--
1078	1.078	0.00032	1184.434	635.623	2220.572	1002.349	3909.121	923.467
1079	1.079	0.00028	864.913	1957.995	2200.776	805.963	4202.482	879.407
1080	1.080	0.00218	432.804	1063.941	1767.332	548.986	3694.991	921.201
1081	1.081	0.00218	731.345	2802.695	1459.416	1039.160	4403.078	1035.680
1082	1.082	0.00129	2392.400	1999.324	4111.456	654.085	--undefined--	--undefined--
1083	1.083	0.00030	1145.969	585.153	2153.177	682.043	3902.374	1067.327
1084	1.084	0.00026	841.342	1007.010	2032.211	622.877	4347.430	760.780
1085	1.085	0.00228	1636.525	927.925	2629.089	1353.226	--undefined--	--undefined--
1086	1.086	0.00228	871.158	2641.388	1435.190	841.843	4344.214	673.349
1087	1.087	0.00113	2181.830	1968.412	4201.676	702.292	--undefined--	--undefined--
1088	1.088	0.00035	1056.582	550.598	2040.589	476.037	4170.444	650.722
1089	1.089	0.00026	935.806	909.952	1884.648	572.139	4495.652	559.581
1090	1.090	0.00168	1967.583	621.213	2785.759	1191.403	--undefined--	--undefined--
1091	1.091	0.00168	1026.440	896.502	1718.425	900.951	4325.210	506.973
1092	1.092	0.00115	2101.916	875.586	4224.950	629.643	--undefined--	--undefined--
1093	1.093	0.00036	1119.615	572.124	2071.063	540.680	4356.961	701.158
1094	1.094	0.00034	965.560	556.190	1900.268	420.822	4647.433	964.986
1095	1.095	0.00199	1577.705	957.462	2249.441	698.629	4804.720	730.202
1096	1.096	0.00199	1042.628	854.302	1770.467	926.134	4290.783	462.232
1097	1.097	0.00132	1943.304	867.123	4292.210	620.625	--undefined--	--undefined--
1098	1.098	0.00041	1115.711	581.038	2078.150	568.555	4242.568	733.834
1099	1.099	0.00026	1301.530	1074.910	1755.542	1231.616	4448.118	762.610
1100	1.100	0.00198	1952.978	605.697	3562.463	1550.883	--undefined--	--undefined--
1101	1.101	0.00198	1014.445	791.751	1796.599	859.911	4293.325	471.823
1102	1.102	0.00137	194.855	1844.427	1885.984	1057.694	4359.765	743.575
1103	1.103	0.00037	1085.487	671.414	2046.309	648.861	4279.980	705.868
1104	1.104	0.00021	1083.247	986.370	1800.153	929.816	4509.950	1005.951
1105	1.105	0.00186	1012.912	1584.486	2131.503	559.465	5058.376	1165.854
1106	1.106	0.00186	921.621	1022.622	1734.499	803.437	4556.439	696.053
1107	1.107	0.00123	441.664	1100.106	2079.731	845.802	4224.410	499.970
1108	1.108	0.00027	1024.048	597.552	2043.143	509.892	4225.809	867.869
1109	1.109	0.00019	1028.809	1235.007	1772.523	937.753	4511.447	783.764
1110	1.110	0.00143	1872.936	551.873	2851.197	953.155	--undefined--	--undefined--
1111	1.111	0.00143	806.877	938.691	1807.475	720.080	4372.568	704.560
1112	1.112	0.00122	2083.479	3643.769	4324.158	817.405	--undefined--	--undefined--
1113	1.113	0.00029	1035.363	674.087	1993.292	649.250	4326.046	495.792
1114	1.114	0.00020	901.640	682.258	1918.193	589.611	4096.031	653.326
1115	1.115	0.00078	725.558	550.278	2073.376	564.928	5162.005	938.723
1116	1.116	0.00149	828.229	1112.697	1896.984	958.258	4170.683	973.530
1117	1.117	0.00149	615.502	774.333	4043.447	737.996	--undefined--	--undefined--
1118	1.118	0.00026	1203.815	738.744	2043.613	1392.005	4332.432	654.489
1119	1.119	0.00017	994.567	540.589	1994.587	583.042	4298.616	600.995
1120	1.120	0.00017	1445.020	821.943	4505.586	799.020	--undefined--	--undefined--
1121	1.121	0.00147	916.429	1247.790	2004.960	1212.040	4098.412	1113.936
1122	1.122	0.00147	1225.094	952.681	4141.483	956.709	--undefined--	--undefined--
1123	1.123	0.00015	1284.115	1000.446	1606.953	1819.383	4289.494	807.786
1124	1.124	0.00012	919.400	423.488	2278.627	880.222	4188.524	549.235
1125	1.125	0.00012	575.780	543.153	1577.240	428.342	4235.965	648.402
1126	1.126	0.00146	1063.087	1079.198	2141.741	1392.584	4186.598	1010.213
1127	1.127	0.00146	1219.330	794.990	2582.347	2373.943	4127.315	916.392
1128	1.128	0.00015	1412.631	631.397	4086.117	705.378	--undefined--	--undefined--
1129	1.129	0.00015	741.923	749.605	2913.820	1094.770	4166.350	733.818
1130	1.130	0.00014	618.211	776.296	1756.771	661.303	3912.814	1687.015
1131	1.131	0.00091	1312.009	755.103	2536.137	2394.450	4672.043	2039.863
1132	1.132	0.00091	1035.575	1032.196	2041.027	1330.746	3998.487	668.808
1133	1.133	0.00016	1381.311	836.477	1485.214	3716.826	4107.673	888.335
1134	1.134	0.00014	354.497	1927.241	2693.433	1406.701	4034.551	635.649
1135	1.135	0.00014	686.818	1083.843	1796.534	1034.462	4045.672	1645.557
1136	1.136	0.00120	1421.864	480.824	2187.124	1199.158	4406.913	700.419
1137	1.137	0.00120	863.717	1233.519	1725.456	903.288	4138.459	534.242
1138	1.138	0.00066	1172.942	662.952	2233.277	1014.536	3967.814	647.195
1139	1.139	0.00014	1463.241	1132.835	3947.067	651.218	--undefined--	--undefined--
1140	1.140	0.00013	824.903	915.066	1802.747	875.363	3829.907	1043.337
1141	1.141	0.00098	1568.530	720.981	3058.202	878.136	4493.979	4615.567
1142	1.142	0.00098	932.962	681.737	1769.889	591.012	4388.384	581.207
1143	1.143	0.00043	878.797	885.630	2037.041	688.306	3956.997	754.750
1144	1.144	0.00015	1347.281	787.291	2333.815	1250.426	4136.160	811.282
1145	1.145	0.00016	1020.907	537.097	1842.715	548.625	4199.565	854.138
1146	1.146	0.00106	1603.672	1159.519	2393.996	1305.314	3847.620	1225.277
1147	1.147	0.00106	974.031	829.276	1793.978	771.701	4537.485	655.394
1148	1.148	0.00046	1987.659	686.001	4262.683	489.926	--undefined--	--undefined--
1149	1.149	0.00015	1180.936	566.928	2128.402	568.505	4370.526	709.629
1150	1.150	0.00021	994.699	798.348	1935.879	629.437	4114.566	2433.498
1151	1.151	0.00021	1310.617	11872.030	1508.622	606.469	2454.724	798.254
1152	1.152	0.00099	927.484	1529.924	1905.326	1413.507	4309.611	1957.074
1153	1.153	0.00099	1738.351	620.012	4067.564	569.473	--undefined--	--undefined--
1154	1.154	0.00012	1221.272	565.138	2131.659	764.299	4277.898	1064.932
1155	1.155	0.00015	1353.944	734.559	2222.917	612.398	4078.330	1784.403
1156	1.156	0.00015	1124.971	370.801	1952.359	319.488	4946.495	836.608
1157	1.157	0.00069	1271.877	902.283	2667.582	1441.647	--undefined--	--undefined--
1158	1.158	0.00069	1161.143	682.236	2222.364	1008.693	3954.511	720.598
1159	1.159	0.00011	1068.397	1296.417	1685.425	843.995	4342.810	903.858
1160	1.160	0.00013	1389.291	716.674	2240.001	701.434	3675.433	830.949
1161	1.161	0.00013	1258.237	840.453	2271.401	787.008	--undefined--	--undefined--
1162	1.162	0.00077	1134.345	722.304	3049.297	818.028	--undefined--	--undefined--
1163	1.163	0.00077	825.516	903.176	1794.940	712.676	4153.386	626.692
1164	1.164	0.00042	1158.162	610.674	2225.713	839.006	3860.923	639.101
1165	1.165	0.00007	1131.860	1117.491	1801.175	985.886	4018.131	617.913
1166	1.166	0.00009	748.253	878.043	1795.059	698.659	3923.673	1713.783
1167	1.167	0.00079	546.670	948.538	2041.750	915.587	3863.934	1440.779
1168	1.168	0.00079	968.370	470.074	1840.788	462.836	4383.779	549.649
1169	1.169	0.00048	379.185	1815.200	2014.621	439.010	4323.266	728.035
1170	1.170	0.00008	1195.040	506.586	2156.423	575.365	4028.161	1290.013
1171	1.171	0.00008	1216.258	873.919	2038.511	893.684	4293.799	756.542
1172	1.172	0.00007	1021.661	815.381	1935.091	812.897	3401.713	3828.097
1173	1.173	0.00045	825.963	1321.856	1976.945	1160.741	4015.523	1263.438
1174	1.174	0.00045	888.203	1401.916	1791.065	747.469	4212.866	567.279
1175	1.175	0.00010	1165.133	506.557	2070.992	604.008	4076.609	1359.755
1176	1.176	0.00008	1684.450	881.037	2622.227	697.114	--undefined--	--undefined--
1177	1.177	0.00008	1077.795	424.086	1907.164	496.332	3216.147	768.087
1178	1.178	0.00053	1125.915	698.585	2262.650	757.321	4478.871	1147.984
1179	1.179	0.00053	946.442	769.370	1944.499	678.083	4093.198	1005.477
1180	1.180	0.00014	1100.524	562.966	1990.755	611.977	3810.353	917.683
1181	1.181	0.00006	1080.691	633.921	1942.141	608.864	4182.893	753.157
1182	1.182	0.00007	1274.941	799.638	2319.136	767.849	--undefined--	--undefined--
1183	1.183	0.00041	528.724	751.628	1766.438	459.967	4602.494	867.777
1184	1.184	0.00041	975.003	448.076	1898.857	451.808	4262.768	1527.436
1185	1.185	0.00025	619.116	1094.452	1950.635	408.221	4364.861	1291.381
1186	1.186	0.00005	1177.516	534.555	2128.400	667.294	3821.784	1505.450
1187	1.187	0.00005	980.128	571.622	2027.287	580.579	3897.456	988.109
1188	1.188	0.00005	977.832	715.669	1922.977	815.188	3944.142	1569.721
1189	1.189	0.00040	760.322	1008.833	1862.606	918.777	3359.228	1652.577
1190	1.190	0.00040	1123.332	671.951	2111.399	756.178	4054.219	1134.021
1191	1.191	0.00004	1064.610	564.614	1936.734	486.048	4276.414	828.314
1192	1.192	0.00004	852.566	957.060	1922.420	792.601	3176.744	1254.413
1193	1.193	0.00003	1006.352	850.513	1898.234	876.750	3561.415	1468.020
1194	1.194	0.00031	427.506	541.555	2302.954	569.966	4071.233	640.824
1195	1.195	0.00031	869.765	547.336	1799.652	435.663	4608.068	1604.342
1196	1.196	0.00016	787.620	1047.091	1877.869	779.367	3883.680	1182.852
1197	1.197	0.00003	1106.828	889.967	2009.996	845.989	4361.577	2001.970
1198	1.198	0.00002	1316.158	1188.532	2157.070	544.516	--undefined--	--undefined--
1199	1.199	0.00002	666.606	1833.154	1914.456	1370.019	3951.491	2620.118
1200	1.200	0.00027	729.204	1062.215	1787.335	969.660	3593.415	1499.079
1201	1.201	0.00027	924.060	1036.211	2026.375	599.787	4348.596	734.696
1202	1.202	0.00004	1008.078	682.091	1951.314	495.879	4455.959	1117.663
1203	1.203	0.00001	1227.012	651.194	2188.075	719.387	4320.844	3333.277
1204	1.204	0.00001	1537.430	857.721	2639.118	1131.354	--undefined--	--undefined--
1205	1.205	0.00025	894.277	921.996	3555.617	2379.431	--undefined--	--undefined--
1206	1.206	0.00025	830.120	614.458	1807.249	476.879	4472.959	2011.235
1207	1.207	0.00015	874.673	798.399	1922.751	683.966	4216.455	1128.385
1208	1.208	0.00006	1225.057	403.088	2070.359	366.420	4138.983	1489.541
1209	1.209	0.00002	1325.306	850.913	2259.636	825.000	--undefined--	--undefined--
1210	1.210	0.00005	463.197	2113.552	1988.181	666.337	4054.071	2104.720
1211	1.211	0.00016	586.165	844.121	1558.035	748.092	2682.426	727.033
1212	1.212	0.00016	676.767	767.361	1969.235	754.672	3286.449	1076.688
1213	1.213	0.00003	967.408	563.157	1897.988	461.626	4305.941	894.891
1214	1.214	0.00001	1420.399	441.684	2320.481	464.677	4419.721	1694.233
1215	1.215	0.00002	1135.063	2956.965	1830.897	706.362	--undefined--	--undefined--
1216	1.216	0.00009	672.189	634.824	1722.329	496.765	4185.177	633.591
1217	1.217	0.00009	900.146	514.781	1748.196	507.469	4277.193	833.327
1218	1.218	0.00006	728.807	710.818	1860.268	605.201	4199.715	1532.552
1219	1.219	0.00004	1207.080	619.688	2229.052	738.790	2314.302	2775.874
1220	1.220	0.00002	1213.714	596.610	2155.263	712.684	3242.109	3378.975
1221	1.221	0.00002	909.901	1304.838	2059.216	556.092	4472.794	1537.809
1222	1.222	0.00006	604.354	634.872	2796.411	1741.124	3367.010	3202.961
1223	1.223	0.00006	933.169	626.442	1915.522	556.296	4530.010	1173.137
1224	1.224	0.00002	1045.355	745.028	1969.805	709.821	3773.774	1915.720
1225	1.225	0.00001	1846.376	731.239	4165.510	603.066	--undefined--	--undefined--
1226	1.226	0.000009	1335.235	1773.695	2085.900	1284.913	--undefined--	--undefined--
1227	1.227	0.00002	688.667	1479.578	1839.371	893.190	3512.195	1730.904
1228	1.228	0.00003	594.377	784.394	1617.409	609.553	4330.896	572.310
1229	1.229	0.00003	598.107	664.692	2542.124	2955.195	4349.072	751.274
1230	1.230	0.000003	1249.328	671.972	2232.751	1132.166	4349.077	924.995
1231	1.231	0.000004	1287.048	703.029	2474.764	1415.163	--undefined--	--undefined--
1232	1.232	0.000004	1844.373	750.871	3771.616	818.538	--undefined--	--undefined--
1233	1.233	0.00002	1405.786	1034.446	1649.649	2471.986	4368.948	918.861
1234	1.234	0.00002	997.662	1017.135	1718.047	1749.242	4088.745	738.578
1235	1.235	0.000006	1195.789	1158.608	3775.129	525.787	--undefined--	--undefined--
1236	1.236	0.000004	1622.818	635.592	3990.435	557.977	--undefined--	--undefined--
1237	1.237	0.000004	568.480	1209.436	2009.796	1248.036	--undefined--	--undefined--
1238	1.238	0.00001	480.381	1381.611	1879.151	1403.446	4319.796	1135.947
1239	1.239	0.00001	572.765	746.721	1731.558	733.455	--undefined--	--undefined--
1240	1.240	0.00001	992.341	731.690	1710.759	1453.527	4567.405	923.190
1241	1.241	0.000002	651.992	561.303	2933.022	1097.210	4323.807	904.034
1242	1.242	0.000003	841.102	883.212	1954.319	591.346	4127.924	1233.100
1243	1.243	0.000003	1756.522	543.431	3754.026	1179.426	--undefined--	--undefined--
1244	1.244	0.000009	863.484	784.824	1921.079	700.774	4556.224	759.174
1245	1.245	0.000009	834.329	801.943	1775.590	798.244	--undefined--	--undefined--
1246	1.246	0.000003	732.621	784.548	1788.429	687.811	4827.713	3299.271
1247	1.247	0.000002	1125.596	751.774	4025.555	1436.181	--undefined--	--undefined--
1248	1.248	0.000002	1202.534	2830.856	1874.591	2927.890	--undefined--	--undefined--
1249	1.249	0.000009	1845.224	956.043	3585.175	1497.280	--undefined--	--undefined--
1250	1.250	0.000009	717.986	1195.279	3825.094	1512.242	--undefined--	--undefined--
1251	1.251	0.000003	139.648	4704.476	1208.977	571.696	4418.044	1136.506
1252	1.252	0.000002	1046.897	657.951	2962.752	1916.910	--undefined--	--undefined--
