frame	time(s)	intensity	F1(Hz)	B1(Hz)	F2(Hz)	B2(Hz)	F3(Hz)	B3(Hz)
1	0.001	0.00001	1358.752	509.528	2248.800	501.686	--undefined--	--undefined--
2	0.002	0.000002	1721.560	463.662	2657.959	475.754	--undefined--	--undefined--
3	0.003	0.000004	1013.314	838.639	1935.504	1000.554	4989.975	801.273
4	0.004	0.00001	1190.140	594.432	2090.975	382.821	4629.366	648.138
5	0.005	0.00001	1750.283	438.929	3696.578	1660.218	--undefined--	--undefined--
6	0.006	0.00001	1100.388	823.633	2126.190	557.163	--undefined--	--undefined--
7	0.007	0.00002	1852.415	436.932	3649.727	2066.407	--undefined--	--undefined--
8	0.008	0.00002	869.633	1857.461	1926.462	908.487	4732.901	2484.850
9	0.009	0.00002	1215.705	779.535	2258.097	898.658	4370.038	1748.720
10	0.010	0.00002	865.059	1555.202	2473.192	1406.492	--undefined--	--undefined--
11	0.011	0.00016	923.208	996.935	1864.692	717.145	--undefined--	--undefined--
12	0.012	0.00016	1375.283	1321.759	2234.532	753.879	--undefined--	--undefined--
13	0.013	0.00007	773.930	1919.354	2354.998	628.233	--undefined--	--undefined--
14	0.014	0.00089	772.178	928.932	1766.627	880.547	2867.487	805.626
15	0.015	0.00089	1097.691	1028.740	2575.721	791.217	--undefined--	--undefined--
16	0.016	0.00022	1273.871	1309.670	2578.845	781.146	--undefined--	--undefined--
17	0.017	0.00029	1156.426	589.336	2467.867	1050.571	--undefined--	--undefined--
18	0.018	0.00036	1190.803	788.107	2352.236	821.319	--undefined--	--undefined--
19	0.019	0.00036	584.115	764.515	1605.315	932.804	--undefined--	--undefined--
20	0.020	0.00018	1348.239	642.126	2202.024	941.393	5025.310	3766.883
21	0.021	0.00289	1061.085	854.061	2223.127	1191.274	--undefined--	--undefined--
22	0.022	0.00289	599.523	556.508	2115.586	686.134	4103.972	1495.112
23	0.023	0.00112	837.291	717.200	1811.256	956.082	--undefined--	--undefined--
24	0.024	0.00537	1164.588	498.975	2220.052	426.742	--undefined--	--undefined--
25	0.025	0.00537	984.942	520.650	1961.772	661.868	3222.260	690.777
26	0.026	0.00241	1289.170	1034.955	3212.184	1775.145	--undefined--	--undefined--
27	0.027	0.00101	1342.358	482.530	2640.630	1147.792	--undefined--	--undefined--
28	0.028	0.01042	1378.076	836.971	2643.270	731.661	--undefined--	--undefined--
29	0.029	0.01042	900.116	1038.287	2035.244	1032.799	3238.394	929.231
30	0.030	0.00364	1127.054	1047.196	2933.625	1036.450	--undefined--	--undefined--
31	0.031	0.01113	718.803	616.246	2705.009	490.150	--undefined--	--undefined--
32	0.032	0.01113	1688.299	1081.959	3589.200	1006.087	--undefined--	--undefined--
33	0.033	0.00402	613.095	554.242	2308.117	1143.580	3652.771	1182.973
34	0.034	0.02188	1061.494	543.590	2448.322	1021.317	3840.828	990.408
35	0.035	0.02188	1438.406	1007.483	2653.851	930.122	--undefined--	--undefined--
36	0.036	0.00872	1564.427	1037.631	2709.002	620.092	--undefined--	--undefined--
37	0.037	0.00647	1746.480	975.111	2790.868	731.420	--undefined--	--undefined--
38	0.038	0.02695	1083.849	1329.514	2247.096	1269.246	3647.753	1405.575
39	0.039	0.02695	1175.526	987.668	2199.309	1279.369	3311.130	1210.451
40	0.040	0.00943	1412.570	1609.551	1438.965	3758.007	2683.746	1932.212
41	0.041	0.02996	1338.436	743.437	2234.414	1713.745	--undefined--	--undefined--
42	0.042	0.02996	410.223	2369.002	1716.693	637.521	3797.232	570.667
43	0.043	0.01492	1167.092	987.732	1889.443	1021.756	4441.311	1502.512
44	0.044	0.07966	1536.897	627.818	2323.527	739.310	--undefined--	--undefined--
45	0.045	0.07966	1732.058	373.329	2764.396	508.179	--undefined--	--undefined--
46	0.046	0.02409	2113.786	817.237	3433.800	1066.105	--undefined--	--undefined--
47	0.047	0.11236	1743.582	630.893	2696.134	587.939	--undefined--	--undefined--
48	0.048	0.11236	1640.894	585.985	2739.697	632.297	--undefined--	--undefined--
49	0.049	0.03850	1987.721	442.204	2886.366	490.568	--undefined--	--undefined--
50	0.050	0.09071	1978.864	600.367	2942.615	604.084	--undefined--	--undefined--
51	0.051	0.09071	1388.536	1179.070	2469.429	1164.182	3736.981	1493.112
52	0.052	0.03512	1758.699	618.549	2802.975	518.017	--undefined--	--undefined--
53	0.053	0.02306	2177.675	539.952	3273.088	699.734	--undefined--	--undefined--
54	0.054	0.14629	1378.756	1547.020	2478.010	1596.578	3828.053	2047.670
55	0.055	0.14629	1593.306	744.394	2742.487	700.005	--undefined--	--undefined--
56	0.056	0.01473	1266.587	1488.262	2322.618	610.040	3450.223	511.579
57	0.057	0.13898	1505.588	1711.968	2760.285	1996.057	--undefined--	--undefined--
58	0.058	0.13898	1606.298	706.016	2741.676	574.949	--undefined--	--undefined--
59	0.059	0.01497	1958.113	643.643	3110.960	775.492	--undefined--	--undefined--
60	0.060	0.11190	1424.394	1664.682	2592.036	1742.497	4509.340	3334.595
61	0.061	0.11190	1664.359	1206.557	2600.615	819.529	--undefined--	--undefined--
62	0.062	0.05526	1848.314	513.895	2986.944	843.744	4347.407	2184.131
63	0.063	0.05526	1357.260	1834.627	2432.335	1441.617	3712.713	1785.751
64	0.064	0.03915	2156.015	525.147	3144.802	549.971	--undefined--	--undefined--
65	0.065	0.07362	1574.412	523.501	2570.148	569.902	3669.872	503.698
66	0.066	0.07362	1934.981	1400.464	3008.449	1544.498	--undefined--	--undefined--
67	0.067	0.01595	2084.018	544.776	3078.102	806.646	--undefined--	--undefined--
68	0.068	0.03589	1601.099	699.006	2673.589	861.024	3888.012	969.873
69	0.069	0.03589	1877.853	854.115	2958.931	825.130	--undefined--	--undefined--
70	0.070	0.02116	2083.674	661.518	3088.460	847.584	--undefined--	--undefined--
71	0.071	0.02566	1563.958	661.172	2577.429	674.512	3720.954	660.022
72	0.072	0.02566	2158.926	678.068	3265.821	712.240	--undefined--	--undefined--
73	0.073	0.00940	1895.717	761.023	2864.082	648.201	--undefined--	--undefined--
74	0.074	0.01169	1581.142	547.552	2543.507	603.924	3667.689	628.909
75	0.075	0.01169	2129.074	728.763	3206.237	698.063	--undefined--	--undefined--
76	0.076	0.00630	774.974	1374.646	2311.213	586.936	3997.426	1967.813
77	0.077	0.00318	1729.720	528.550	2793.374	590.354	3819.552	462.539
78	0.078	0.00225	800.696	741.108	2999.908	1571.906	3984.670	1215.904
79	0.079	0.00244	708.925	1643.229	3317.149	1438.695	--undefined--	--undefined--
80	0.080	0.00244	2200.714	1176.958	3695.400	1273.870	--undefined--	--undefined--
81	0.081	0.00129	1235.262	954.602	2317.214	759.949	--undefined--	--undefined--
82	0.082	0.00129	1189.480	748.510	2504.398	1059.717	3871.119	862.510
83	0.083	0.00086	2155.217	763.371	3914.254	442.691	--undefined--	--undefined--
84	0.084	0.00072	2162.325	1279.138	3252.333	1679.735	--undefined--	--undefined--
85	0.085	0.00072	1974.879	1342.541	3794.133	865.170	--undefined--	--undefined--
86	0.086	0.00054	1151.863	1275.317	2213.829	1036.374	--undefined--	--undefined--
87	0.087	0.00018	948.416	1216.224	3440.551	639.942	--undefined--	--undefined--
88	0.088	0.00061	1577.331	1337.830	2799.421	928.857	4113.315	1502.878
89	0.089	0.00061	1719.598	774.837	2554.640	809.348	4277.505	506.666
90	0.090	0.00043	816.252	1454.157	3476.652	898.399	--undefined--	--undefined--
91	0.091	0.00046	2154.952	1399.461	3045.041	2657.249	4705.514	1221.272
92	0.092	0.00188	1923.443	777.494	3023.747	1108.390	4915.281	1063.863
93	0.093	0.00188	2151.135	785.061	3245.520	567.646	4158.970	453.157
94	0.094	0.00113	1723.854	954.788	2928.363	811.782	3918.058	462.668
95	0.095	0.00381	1972.880	859.242	3006.854	575.107	--undefined--	--undefined--
96	0.096	0.00541	2257.182	1090.209	3335.568	754.997	4257.121	794.114
97	0.097	0.00541	2280.523	463.675	3203.665	516.163	4098.857	645.990
98	0.098	0.00573	2091.365	421.135	2964.622	408.541	--undefined--	--undefined--
99	0.099	0.00826	2475.731	560.000	3372.688	551.621	4242.985	496.939
100	0.100	0.00826	2439.067	581.040	3445.962	649.393	4420.959	877.335
101	0.101	0.02318	2111.237	540.761	3175.853	595.200	4282.909	622.729
102	0.102	0.02372	1844.488	1001.313	3520.532	332.423	4323.864	364.921
103	0.103	0.02372	2358.445	400.512	3327.528	438.838	4382.750	1635.480
104	0.104	0.00982	2059.219	744.748	4109.922	715.591	4823.839	1556.712
105	0.105	0.01237	2097.647	609.292	3852.550	1203.337	4323.526	747.152
106	0.106	0.01237	2344.614	306.692	3246.888	325.464	4774.588	1915.274
107	0.107	0.00815	2127.677	525.577	3625.087	826.528	4561.070	752.132
108	0.108	0.00864	2488.742	799.135	3471.247	625.148	4319.438	586.575
109	0.109	0.00864	2291.297	628.793	3247.631	535.036	4173.721	472.984
110	0.110	0.00661	2171.540	570.541	3238.051	478.246	--undefined--	--undefined--
111	0.111	0.01028	1736.761	2258.494	2911.621	450.807	5044.095	663.602
112	0.112	0.01028	3223.807	765.653	3442.640	3916.605	4237.944	931.924
113	0.113	0.00420	2124.425	613.809	3137.068	762.824	4971.539	817.375
114	0.114	0.00359	2379.487	1282.829	3408.109	1013.918	4265.798	1314.912
115	0.115	0.00403	2317.188	588.796	3458.452	729.193	4846.879	821.671
116	0.116	0.00403	2041.281	703.116	3184.365	620.529	4511.503	2046.962
117	0.117	0.01160	1807.120	776.507	4134.882	524.072	5067.875	423.797
118	0.118	0.01668	2356.723	391.610	3329.367	426.631	4426.887	1734.111
119	0.119	0.01668	1991.890	683.568	3800.804	1851.635	4236.240	634.465
120	0.120	0.01497	2058.458	636.476	3353.451	737.925	4109.754	1092.972
121	0.121	0.02386	2486.905	381.153	3485.415	453.885	4565.992	700.093
122	0.122	0.02386	2189.474	469.312	3224.528	667.602	4505.508	457.870
123	0.123	0.01590	2235.360	629.294	3273.450	479.079	4136.109	417.935
124	0.124	0.01590	2717.687	456.198	3638.073	604.806	4525.318	1097.494
125	0.125	0.02157	2282.466	386.370	3379.527	961.833	4801.552	720.977
126	0.126	0.02157	2268.175	464.984	3235.919	533.612	4351.848	541.762
127	0.127	0.01143	2567.257	426.945	3451.108	413.454	4847.453	1627.519
128	0.128	0.02286	2669.892	725.674	3558.839	684.058	4426.060	881.990
129	0.129	0.02286	2483.391	423.872	3619.044	458.741	4632.684	586.120
130	0.130	0.03231	2610.280	913.236	3563.488	758.093	4531.766	1009.652
131	0.131	0.03391	2412.074	744.600	3487.140	489.927	4358.719	513.739
132	0.132	0.03391	2102.046	485.138	3466.779	724.865	4429.096	644.150
133	0.133	0.01270	2098.847	454.101	3248.371	616.167	4403.762	673.693
134	0.134	0.02668	1676.310	573.491	3146.958	1781.820	4287.853	473.325
135	0.135	0.04133	2236.738	562.323	3468.530	521.489	4436.393	908.370
136	0.136	0.05446	2518.887	510.493	3430.320	427.245	4264.419	451.968
137	0.137	0.08303	2713.289	657.423	3639.692	626.577	4595.130	860.843
138	0.138	0.08303	2395.867	564.383	3255.580	425.904	4058.119	334.738
139	0.139	0.05044	2480.345	1249.243	3614.528	682.696	4500.165	822.127
140	0.140	0.05044	2543.737	443.626	3439.474	485.724	4350.114	640.640
141	0.141	0.03057	3039.088	828.072	3863.634	1258.092	4665.337	2702.441
142	0.142	0.02715	2485.503	635.888	3599.202	485.129	4461.786	474.057
143	0.143	0.02315	1988.151	1194.066	3399.356	347.151	--undefined--	--undefined--
144	0.144	0.02315	2033.001	993.110	3723.956	390.796	4789.499	634.307
145	0.145	0.02697	1985.987	850.030	3501.734	286.464	--undefined--	--undefined--
146	0.146	0.05450	2086.770	1930.415	3692.288	549.172	4831.244	788.838
147	0.147	0.05450	2303.938	915.726	3577.721	675.960	4592.186	962.443
148	0.148	0.04216	2383.121	533.762	3545.823	520.393	4500.546	580.189
149	0.149	0.04216	2494.043	400.495	3417.582	409.721	4305.947	436.249
150	0.150	0.03984	2268.957	552.163	3544.285	699.746	4823.483	845.305
151	0.151	0.03984	2194.762	936.095	3648.687	474.759	4986.953	1340.248
152	0.152	0.03367	1976.477	443.643	2982.686	651.732	4413.906	929.199
153	0.153	0.03367	2647.496	1090.237	3547.160	828.941	4494.171	1056.770
154	0.154	0.01694	2552.504	325.474	3474.388	383.881	4384.136	482.422
155	0.155	0.01530	1941.553	1260.653	3657.709	438.714	4692.365	650.605
156	0.156	0.01286	2385.943	423.136	3406.153	494.308	4426.296	480.809
157	0.157	0.03230	2438.764	636.045	3425.427	590.763	4726.466	988.868
158	0.158	0.03230	2463.107	571.334	3394.887	410.000	4166.789	374.239
159	0.159	0.02900	2329.431	382.743	3256.778	410.362	4128.476	429.461
160	0.160	0.06462	2304.146	1053.972	3652.355	540.795	4772.689	758.554
161	0.161	0.06462	2314.935	437.022	3379.151	495.211	4316.551	471.062
162	0.162	0.02452	2897.289	1497.367	3259.540	1063.760	4224.053	666.553
163	0.163	0.02170	2547.283	998.202	3490.750	782.749	4448.140	952.718
164	0.164	0.02170	1960.909	1753.426	3310.632	535.071	4204.192	623.426
165	0.165	0.02634	2077.731	518.201	3548.129	592.988	4387.612	494.826
166	0.166	0.02634	2046.990	571.086	3239.342	490.017	4104.942	2001.843
167	0.167	0.02079	2485.216	2470.132	3297.038	532.400	4197.187	518.281
168	0.168	0.02286	2218.906	1168.488	3362.740	455.954	4221.864	542.116
169	0.169	0.02286	2214.753	634.482	3390.252	595.200	4358.576	520.065
170	0.170	0.06596	2352.106	450.889	3350.103	429.284	4240.023	414.235
171	0.171	0.06596	2143.071	887.451	3568.559	471.483	4424.852	519.023
172	0.172	0.04023	2161.279	503.335	3385.995	625.944	4987.973	983.514
173	0.173	0.02348	2366.500	385.690	3308.880	429.667	4310.674	1349.891
174	0.174	0.02793	2377.269	1787.252	3454.900	863.682	4980.384	1496.258
175	0.175	0.03346	2079.005	718.345	3678.298	507.110	4789.269	841.737
176	0.176	0.03346	2352.190	708.404	3804.829	324.275	4778.992	504.847
177	0.177	0.02630	2039.922	1295.490	3583.256	624.696	4469.167	647.869
178	0.178	0.02142	2092.086	487.432	3013.152	448.145	5052.517	1452.649
179	0.179	0.06065	3148.724	4649.070	3164.609	893.325	4161.007	826.333
180	0.180	0.06065	2275.234	713.424	3231.691	1310.005	4511.865	437.247
181	0.181	0.02446	1822.360	920.496	2707.486	768.868	4348.310	266.080
182	0.182	0.01879	2061.460	1838.289	3259.405	642.318	4150.229	508.876
183	0.183	0.05389	2679.188	915.608	3641.842	492.676	--undefined--	--undefined--
184	0.184	0.05389	2205.579	617.203	3241.849	512.007	4121.919	441.679
185	0.185	0.02843	2239.759	613.292	3326.274	589.268	4352.353	639.196
186	0.186	0.02274	2213.626	556.661	3407.721	698.143	4341.361	890.299
187	0.187	0.02607	2050.407	1641.509	3475.277	701.977	4362.737	1760.849
188	0.188	0.02607	1909.357	545.414	3659.735	751.370	--undefined--	--undefined--
189	0.189	0.03806	2645.188	683.486	3493.622	789.897	--undefined--	--undefined--
190	0.190	0.04479	2359.326	594.414	3286.844	489.523	4102.468	382.756
191	0.191	0.04479	2324.412	609.387	3251.436	512.486	4105.171	524.809
192	0.192	0.04338	2204.079	692.363	3238.278	760.968	4685.925	856.061
193	0.193	0.05217	2163.942	437.091	3385.707	1110.177	4633.709	753.791
194	0.194	0.06374	2219.015	997.655	3106.070	1859.127	4137.685	392.403
195	0.195	0.06374	2351.514	542.093	3336.359	696.647	4858.910	1203.202
196	0.196	0.06242	2075.128	723.148	2809.105	1736.151	4605.059	1223.213
197	0.197	0.06242	1750.956	648.296	3764.249	413.029	4779.479	720.005
198	0.198	0.04530	2476.651	518.615	3790.538	552.882	4753.117	621.269
199	0.199	0.04530	2545.675	825.972	2750.785	3462.338	4284.541	604.024
200	0.200	0.06879	2228.909	828.742	3283.680	619.876	4156.685	499.474
201	0.201	0.06879	2231.973	1191.450	3503.657	428.534	4352.169	399.032
202	0.202	0.02586	2196.771	1275.309	3671.178	599.215	4860.163	656.737
203	0.203	0.03646	2358.258	452.707	3502.265	481.680	4455.005	503.258
204	0.204	0.03694	2160.712	542.860	3373.139	639.070	4507.611	844.835
205	0.205	0.03694	2985.829	868.835	3959.415	1034.176	--undefined--	--undefined--
206	0.206	0.02881	1922.778	438.268	3960.391	867.712	4836.979	978.063
207	0.207	0.02881	1365.399	682.482	3645.687	859.549	4345.138	849.112
208	0.208	0.00779	2678.912	824.571	4191.449	843.774	--undefined--	--undefined--
209	0.209	0.01716	2402.896	644.614	3594.788	738.275	4888.335	914.757
210	0.210	0.01716	2467.320	716.136	3671.743	681.518	4621.877	842.370
211	0.211	0.00884	1587.472	730.194	3613.927	904.492	4448.776	717.887
212	0.212	0.02614	1730.631	1314.914	3635.809	835.364	4915.482	789.564
213	0.213	0.02614	2443.020	641.996	3490.890	580.751	4382.887	536.400
214	0.214	0.01903	1933.160	619.495	3240.789	1108.062	4494.879	451.559
215	0.215	0.02383	2271.920	1040.808	2903.431	667.776	4686.238	482.123
216	0.216	0.04542	2363.586	435.849	3544.645	716.271	4584.152	624.270
217	0.217	0.04542	2503.257	1360.513	2881.800	1104.320	4544.895	460.450
218	0.218	0.01339	1989.513	2675.482	3039.851	685.847	5203.426	2207.195
219	0.219	0.01026	1794.072	911.081	3162.309	688.894	4283.488	1421.633
220	0.220	0.01026	1390.647	1173.928	3354.547	718.520	4349.386	721.246
221	0.221	0.00295	2115.962	711.042	3150.654	1706.398	4757.081	511.403
222	0.222	0.00189	1909.192	1306.142	3007.436	999.147	4479.571	2313.859
223	0.223	0.00684	2403.187	564.888	3405.707	602.293	--undefined--	--undefined--
224	0.224	0.00684	2934.219	825.632	4069.486	1210.738	--undefined--	--undefined--
225	0.225	0.00229	2153.876	589.486	3178.959	736.769	4574.050	962.881
226	0.226	0.00208	1987.995	4003.251	2953.637	704.463	5207.722	1660.548
227	0.227	0.00208	2037.957	1029.288	3430.239	1072.869	4341.978	938.302
228	0.228	0.00149	1367.977	1896.001	3253.958	953.770	4332.698	1132.702
229	0.229	0.00149	1375.834	970.173	2415.234	680.827	4196.612	337.719
230	0.230	0.00082	2034.881	2055.137	3255.857	1186.168	4373.729	1527.244
231	0.231	0.00294	1796.154	955.417	2821.308	641.884	3842.471	504.665
232	0.232	0.00294	2681.085	656.426	3710.244	759.460	--undefined--	--undefined--
233	0.233	0.00106	2966.885	901.161	4218.406	742.196	--undefined--	--undefined--
234	0.234	0.00106	2428.855	1466.013	4043.722	677.891	--undefined--	--undefined--
235	0.235	0.00099	1334.773	1615.593	3383.199	875.306	4278.231	1259.453
236	0.236	0.00257	2161.767	1714.774	3204.209	1297.149	3851.893	1806.534
237	0.237	0.00257	1949.606	1055.849	3006.521	803.943	4701.877	1555.163
238	0.238	0.00227	2033.755	926.209	3253.168	934.457	4480.237	1402.863
239	0.239	0.00079	1991.982	1456.731	2900.347	1196.571	4204.231	1199.326
240	0.240	0.00126	322.516	2003.851	2645.237	438.309	4532.989	1044.329
241	0.241	0.00126	1201.858	6875.409	1232.967	766.450	4196.278	586.453
242	0.242	0.00083	1044.490	873.109	3147.510	408.455	4085.487	445.867
243	0.243	0.00051	616.168	456.215	3123.029	660.674	3964.355	496.211
244	0.244	0.00378	657.357	389.802	3513.664	532.803	4511.571	1299.435
245	0.245	0.00378	799.237	731.582	3723.265	604.549	3801.518	7471.561
246	0.246	0.00162	1262.091	1868.965	2786.430	780.328	3832.338	499.284
247	0.247	0.01507	1234.823	1097.310	3299.774	1935.906	4586.436	2185.300
248	0.248	0.01507	677.564	588.227	3247.223	959.404	4145.005	1690.379
249	0.249	0.00507	1027.947	1181.930	3276.995	948.561	--undefined--	--undefined--
250	0.250	0.00507	562.410	513.732	2534.275	2072.215	5183.170	1512.644
251	0.251	0.00323	999.207	913.396	3716.742	510.280	--undefined--	--undefined--
252	0.252	0.00440	672.368	622.112	3672.828	1283.208	--undefined--	--undefined--
253	0.253	0.00598	948.677	770.129	2176.573	2379.440	3640.419	624.283
254	0.254	0.00598	1148.911	783.766	2706.525	2061.790	3768.884	903.140
255	0.255	0.00759	1115.204	1223.012	3056.721	1476.093	4910.863	1786.231
256	0.256	0.00759	802.663	833.689	3327.921	597.128	--undefined--	--undefined--
257	0.257	0.00723	1223.789	1018.895	3659.562	702.817	--undefined--	--undefined--
258	0.258	0.00690	536.078	573.903	2706.588	1680.415	--undefined--	--undefined--
259	0.259	0.00690	1037.683	1511.087	1790.216	1437.443	4655.647	1147.211
260	0.260	0.00877	618.704	1364.513	2704.047	707.987	--undefined--	--undefined--
261	0.261	0.00877	1152.015	781.387	2635.305	1416.525	4911.771	1704.207
262	0.262	0.01608	1016.692	686.960	3120.689	760.121	--undefined--	--undefined--
263	0.263	0.01608	777.339	1491.548	3014.212	2624.785	4837.119	1653.699
264	0.264	0.00813	1044.101	954.203	3247.137	675.558	--undefined--	--undefined--
265	0.265	0.03074	512.457	1012.479	2135.795	1097.397	4103.640	534.038
266	0.266	0.03074	1748.885	1203.551	3868.142	1866.352	--undefined--	--undefined--
267	0.267	0.01035	1180.713	793.624	2222.520	722.251	3587.673	1814.057
268	0.268	0.01117	1193.437	901.885	2662.402	2908.453	4465.382	1335.113
269	0.269	0.01117	664.048	784.864	2407.698	1139.907	3545.570	672.998
270	0.270	0.04538	457.727	890.761	2849.130	995.270	4992.195	1011.249
271	0.271	0.04538	2698.935	551.653	5146.552	1278.465	--undefined--	--undefined--
272	0.272	0.01767	1176.733	769.001	2425.136	714.066	3761.683	829.963
273	0.273	0.03619	1232.162	732.758	2670.469	1685.458	4214.521	962.835
274	0.274	0.03619	1125.289	1541.052	3407.612	726.097	--undefined--	--undefined--
275	0.275	0.04679	633.743	2032.387	2914.546	1827.213	--undefined--	--undefined--
276	0.276	0.04679	2685.940	913.036	2971.019	3606.468	--undefined--	--undefined--
277	0.277	0.02203	900.989	851.527	2635.493	503.415	3772.801	451.297
278	0.278	0.04284	1331.585	633.645	3513.596	905.909	--undefined--	--undefined--
279	0.279	0.04284	1244.010	793.120	3459.190	402.033	--undefined--	--undefined--
280	0.280	0.18940	1727.100	1311.096	3026.636	1522.410	--undefined--	--undefined--
281	0.281	0.18940	2655.313	1054.881	5074.472	3090.504	--undefined--	--undefined--
282	0.282	0.06608	1255.851	774.999	3632.588	429.049	--undefined--	--undefined--
283	0.283	0.05043	1570.668	1246.277	2002.681	1204.890	4494.379	1090.980
284	0.284	0.05043	1181.848	794.077	3362.920	394.893	--undefined--	--undefined--
285	0.285	0.16841	1583.384	1263.548	2765.328	1198.290	--undefined--	--undefined--
286	0.286	0.16841	2588.924	1333.077	2981.664	3185.557	--undefined--	--undefined--
287	0.287	0.06351	1015.786	711.575	2839.214	1978.865	3780.542	524.703
288	0.288	0.11963	1422.962	1138.170	2313.115	754.759	4628.626	1797.853
289	0.289	0.11963	806.727	588.397	2582.102	1129.838	3494.785	562.799
290	0.290	0.08070	869.571	1187.876	2219.055	793.862	3328.742	745.396
291	0.291	0.08070	1816.657	1064.804	2944.384	614.702	--undefined--	--undefined--
292	0.292	0.02433	1137.489	746.887	2354.098	1092.610	3557.028	1216.666
293	0.293	0.14898	1346.516	1475.098	2410.765	935.025	3969.674	1509.897
294	0.294	0.14898	897.255	2116.828	2666.708	829.983	4256.327	1518.321
295	0.295	0.18073	2341.554	854.680	3299.873	908.615	--undefined--	--undefined--
296	0.296	0.18073	2396.922	886.082	2980.514	994.651	--undefined--	--undefined--
297	0.297	0.08429	1172.296	655.605	2268.301	571.814	3261.746	487.161
298	0.298	0.43905	1668.369	1645.146	2712.614	1682.958	4636.588	3012.249
299	0.299	0.43905	1507.188	1734.110	2339.769	661.406	4238.985	624.285
300	0.300	0.17739	2252.586	824.283	3176.839	1191.480	--undefined--	--undefined--
301	0.301	0.17739	2312.479	627.782	3196.952	897.677	--undefined--	--undefined--
302	0.302	0.06046	967.254	883.336	2279.805	534.202	3285.906	393.156
303	0.303	0.39917	1671.579	1592.039	2751.715	1606.469	4536.745	2755.108
304	0.304	0.39917	1452.462	1489.043	2306.999	477.412	4225.107	556.035
305	0.305	0.30607	2111.317	2364.416	2293.944	658.753	3372.760	1134.246
306	0.306	0.30607	2263.045	962.820	3007.906	4817.613	3218.082	1555.223
307	0.307	0.37454	1058.284	1218.424	2339.575	627.361	3344.507	522.013
308	0.308	0.37454	1666.651	1319.748	2776.416	1268.399	4440.920	2535.753
309	0.309	0.10773	1725.979	2008.708	2350.782	731.914	3974.131	955.395
310	0.310	0.10485	1752.094	1318.729	2640.536	535.071	--undefined--	--undefined--
311	0.311	0.10485	1402.350	1102.080	2441.934	752.720	3642.249	1040.168
312	0.312	0.08127	1084.741	3250.953	2273.669	1161.920	3284.585	1080.473
313	0.313	0.08127	1357.406	908.836	2416.154	721.215	3320.853	680.342
314	0.314	0.03462	2393.662	846.979	2992.629	1277.641	--undefined--	--undefined--
315	0.315	0.12345	1242.760	1069.773	2534.388	912.139	3885.932	1537.881
316	0.316	0.12345	1482.581	857.069	2538.342	812.245	3736.004	2680.857
317	0.317	0.05804	1548.794	560.734	2668.059	474.247	3619.895	500.470
318	0.318	0.05804	2199.305	518.745	2990.347	534.533	--undefined--	--undefined--
319	0.319	0.03485	777.782	1209.775	2242.694	574.351	3151.822	450.480
320	0.320	0.09695	1450.743	1716.663	2722.312	1628.370	3846.416	3334.166
321	0.321	0.09695	1293.249	820.713	2425.137	567.860	4238.608	2526.549
322	0.322	0.09123	1261.164	489.805	3071.196	369.247	3956.847	5626.890
323	0.323	0.09123	1638.655	1316.046	2675.326	896.069	3612.606	4447.936
324	0.324	0.09479	1659.330	1685.028	2359.545	2308.177	2955.630	1505.393
325	0.325	0.09479	1573.999	1082.435	2672.042	911.201	3596.702	1804.589
326	0.326	0.01975	744.613	612.542	2659.010	497.488	4205.532	1694.360
327	0.327	0.10816	1330.751	1503.017	2911.444	1898.028	4007.580	2458.798
328	0.328	0.10816	1233.241	1059.989	2447.702	1082.836	4421.224	1338.846
329	0.329	0.04403	1410.086	489.834	3098.249	584.509	--undefined--	--undefined--
330	0.330	0.04403	1071.414	1212.568	2447.251	492.591	4086.365	923.475
331	0.331	0.16792	1456.491	1567.747	2406.242	884.912	--undefined--	--undefined--
332	0.332	0.16792	1887.216	1358.702	2954.506	1235.370	4225.952	2693.085
333	0.333	0.02372	1265.829	1742.613	2502.417	585.718	--undefined--	--undefined--
334	0.334	0.11557	1407.937	1735.556	2881.051	1560.359	4105.435	1858.574
335	0.335	0.11557	1935.798	1584.937	2837.439	1033.963	--undefined--	--undefined--
336	0.336	0.09270	1286.193	532.722	3265.632	562.154	--undefined--	--undefined--
337	0.337	0.09270	1497.095	759.376	2571.616	664.073	3865.833	886.756
338	0.338	0.12285	1846.957	647.008	2957.124	822.288	--undefined--	--undefined--
339	0.339	0.12285	2455.075	443.481	3871.963	1424.916	--undefined--	--undefined--
340	0.340	0.12512	1318.700	2286.714	2408.169	1066.053	--undefined--	--undefined--
341	0.341	0.12512	1814.541	1007.798	3026.440	1230.236	4566.726	1415.330
342	0.342	0.05391	2077.714	708.616	2874.092	424.300	--undefined--	--undefined--
343	0.343	0.13964	1544.722	1600.488	3211.341	1914.033	4336.777	2241.940
344	0.344	0.13964	1362.427	1806.865	2583.881	933.570	3462.771	1147.081
345	0.345	0.15229	1366.077	1182.242	3438.715	1292.565	--undefined--	--undefined--
346	0.346	0.15229	1488.391	891.367	2579.209	766.345	3906.619	943.836
347	0.347	0.09859	1851.997	565.799	3347.480	875.991	4468.428	4587.606
348	0.348	0.09859	1287.400	880.459	2452.023	493.825	4081.260	656.806
349	0.349	0.16831	1588.308	1685.892	2425.601	980.900	--undefined--	--undefined--
350	0.350	0.16831	2402.528	374.760	4135.543	546.643	--undefined--	--undefined--
351	0.351	0.07178	1053.669	1572.238	2317.623	839.120	3434.332	978.460
352	0.352	0.07178	1256.503	1877.609	2609.385	731.784	3960.674	742.163
353	0.353	0.18224	765.160	1311.023	2506.720	693.297	3854.940	926.395
354	0.354	0.18224	1698.360	1048.219	2936.238	1055.545	4201.100	1281.726
355	0.355	0.11427	715.388	953.685	2534.650	548.075	4583.575	742.539
356	0.356	0.11427	1457.004	1218.164	2744.798	1177.955	3993.399	1267.361
357	0.357	0.04096	1015.666	422.575	2505.147	1505.662	3891.465	723.839
358	0.358	0.13352	1479.914	1883.460	2748.256	1579.414	4025.768	1596.865
359	0.359	0.13352	1034.790	758.356	2738.317	739.404	4149.402	935.049
360	0.360	0.04725	974.553	1768.401	2497.864	1139.486	3833.048	1063.485
361	0.361	0.04725	1018.276	859.680	2893.481	1175.290	4188.718	1367.485
362	0.362	0.07045	939.585	2579.623	2601.199	1935.183	3744.041	1896.987
363	0.363	0.07045	1159.020	1127.148	2599.899	1010.354	3971.905	1230.694
364	0.364	0.03802	767.978	1118.733	2417.026	783.112	3913.469	764.640
365	0.365	0.03802	1015.457	811.320	2291.580	1041.869	3499.637	935.206
366	0.366	0.07934	813.835	1123.090	2657.570	1113.076	3864.879	1413.290
367	0.367	0.07934	1163.104	949.661	2580.379	1120.442	3773.247	1851.483
368	0.368	0.05177	843.573	789.088	2315.310	1074.851	3877.144	747.064
369	0.369	0.05177	994.410	650.110	2164.038	958.515	3173.132	632.230
370	0.370	0.04283	930.749	880.504	2381.306	1028.725	3786.433	1275.716
371	0.371	0.04283	1083.069	710.811	2392.399	948.293	3481.806	1216.922
372	0.372	0.03892	901.877	868.032	2365.370	956.216	3588.456	1003.484
373	0.373	0.03892	1027.677	651.055	2272.072	1209.194	3743.845	946.919
374	0.374	0.02874	907.185	1193.239	2252.876	1478.852	3360.675	960.075
375	0.375	0.02874	953.756	555.571	2593.067	2023.274	3627.784	804.679
376	0.376	0.02861	849.925	997.460	2168.698	1047.985	3449.491	806.882
377	0.377	0.02861	919.653	570.786	2408.455	2342.723	3480.310	716.429
378	0.378	0.02652	864.720	831.083	2261.929	925.439	3459.483	603.202
379	0.379	0.02207	1058.002	730.235	2864.129	1049.141	4119.511	3285.396
380	0.380	0.02207	940.474	663.663	2587.362	953.400	3594.053	767.760
381	0.381	0.02555	1157.671	664.559	2489.173	1982.668	2752.684	1072.463
382	0.382	0.02555	906.785	350.294	2750.560	632.395	3704.071	720.169
383	0.383	0.02563	1150.024	887.846	2411.749	1108.022	--undefined--	--undefined--
384	0.384	0.02563	881.755	855.217	2512.387	1556.080	3424.932	1500.336
385	0.385	0.02928	993.389	1031.333	1521.382	1206.257	3369.085	510.419
386	0.386	0.02928	1188.151	1291.286	2579.968	905.397	--undefined--	--undefined--
387	0.387	0.02655	1106.647	500.065	2371.017	1681.169	3595.646	570.829
388	0.388	0.02655	981.511	747.160	2510.583	988.277	3617.364	1347.649
389	0.389	0.01840	964.846	895.587	2333.026	1186.083	3635.563	672.678
390	0.390	0.01944	960.483	505.732	2753.336	484.839	3775.682	847.716
391	0.391	0.01944	835.995	819.410	2603.910	1046.049	3754.589	759.835
392	0.392	0.01894	1303.695	780.267	2660.264	807.870	3072.418	2596.311
393	0.393	0.01894	964.321	466.588	2656.261	643.351	3838.429	709.476
394	0.394	0.01141	1181.155	754.026	2172.801	898.377	3483.456	806.481
395	0.395	0.01141	915.173	1041.353	2320.180	794.982	4143.332	2581.940
396	0.396	0.01450	1227.940	791.192	1917.723	1151.116	3993.894	567.065
397	0.397	0.01450	904.969	945.930	2496.122	814.061	3582.991	1246.096
398	0.398	0.00962	890.626	1106.011	2368.809	1111.251	3789.333	816.698
399	0.399	0.01697	1105.964	624.326	2521.664	533.114	3497.478	640.284
400	0.400	0.01697	811.870	1226.555	2717.399	502.253	3881.253	817.261
401	0.401	0.01881	1339.914	645.967	2318.627	787.893	3534.457	1120.917
402	0.402	0.01881	1533.669	1489.859	2725.214	715.848	--undefined--	--undefined--
403	0.403	0.02209	1229.716	674.504	2114.570	715.558	4113.076	632.565
404	0.404	0.02209	770.041	1569.132	2556.486	829.114	3654.427	1375.170
405	0.405	0.02156	879.501	1638.438	2520.625	966.335	3828.167	937.774
406	0.406	0.01793	1563.595	913.743	2678.269	638.864	3545.222	3386.999
407	0.407	0.01793	1385.832	2658.082	2535.465	832.971	3487.297	1688.029
408	0.408	0.01258	1542.941	456.097	2375.858	446.267	4338.606	962.411
409	0.409	0.01258	900.247	1920.458	2331.063	958.564	3304.555	1197.267
410	0.410	0.02227	1158.104	1635.309	2348.562	1087.024	3887.139	1395.267
411	0.411	0.02227	2303.885	490.762	3196.528	702.235	--undefined--	--undefined--
412	0.412	0.01539	2475.198	685.342	3523.168	1301.464	--undefined--	--undefined--
413	0.413	0.02191	1719.219	656.769	2587.409	672.660	3568.230	2726.155
414	0.414	0.02191	832.729	1728.091	2340.219	1026.847	3257.385	1352.711
415	0.415	0.01986	1014.315	1328.749	2285.154	863.961	3580.036	1119.974
416	0.416	0.01986	2305.851	557.006	3111.124	602.361	--undefined--	--undefined--
417	0.417	0.01878	2349.979	625.832	3213.156	861.502	--undefined--	--undefined--
418	0.418	0.02216	1853.003	501.500	2712.065	569.302	3340.044	2511.960
419	0.419	0.02216	825.984	1059.103	2217.845	558.895	3175.670	484.755
420	0.420	0.02825	1034.608	1872.225	2331.736	965.126	3434.948	1143.824
421	0.421	0.03053	571.982	1638.001	2291.020	439.333	3171.488	421.963
422	0.422	0.03053	2197.083	555.055	3010.985	538.236	--undefined--	--undefined--
423	0.423	0.02918	2207.017	522.422	3060.074	570.121	--undefined--	--undefined--
424	0.424	0.02918	636.435	1179.985	2186.907	644.137	3095.517	541.411
425	0.425	0.02342	660.630	2242.617	2391.324	1146.427	3505.400	1711.119
426	0.426	0.01682	626.651	1095.390	2268.172	632.619	3124.036	499.987
427	0.427	0.01682	1084.672	1054.726	2474.216	678.738	3517.720	1860.617
428	0.428	0.01188	702.768	1249.320	2543.222	765.361	3423.830	978.663
429	0.429	0.01188	788.092	1494.129	2699.842	487.296	--undefined--	--undefined--
430	0.430	0.00534	1038.399	3550.159	2694.943	1148.392	--undefined--	--undefined--
431	0.431	0.00124	1120.672	1421.361	2714.355	978.100	--undefined--	--undefined--
432	0.432	0.00045	791.107	511.071	2673.119	1174.973	4545.283	1433.690
433	0.433	0.00045	593.966	724.459	1701.375	765.670	4114.888	1105.548
434	0.434	0.00011	977.241	734.543	3106.201	1012.321	--undefined--	--undefined--
435	0.435	0.00011	1041.690	795.113	2405.182	1219.585	3802.212	603.408
436	0.436	0.00013	1010.236	746.798	2104.661	1166.800	3081.142	737.047
437	0.437	0.00013	1534.195	528.015	2594.677	592.250	--undefined--	--undefined--
438	0.438	0.00007	1478.186	1449.533	2611.946	623.958	--undefined--	--undefined--
439	0.439	0.00007	2015.818	1187.341	2826.274	622.516	--undefined--	--undefined--
440	0.440	0.00005	789.753	2757.279	2300.011	810.893	3489.109	1142.454
441	0.441	0.00005	565.290	1943.932	2315.831	977.879	3287.949	1011.136
442	0.442	0.00004	1104.192	4245.019	2521.891	716.653	--undefined--	--undefined--
443	0.443	0.00004	489.828	1363.072	2625.061	786.114	4838.354	2500.296
444	0.444	0.00004	1400.052	1702.727	2580.293	1188.411	2980.802	1911.874
445	0.445	0.00003	1053.983	1017.696	2452.180	981.979	3377.618	1306.316
446	0.446	0.00003	295.217	1544.621	2453.964	641.324	3581.295	847.141
447	0.447	0.00004	1163.467	1783.820	2616.744	662.021	--undefined--	--undefined--
448	0.448	0.00004	2454.369	568.629	4738.832	3035.147	--undefined--	--undefined--
449	0.449	0.00002	2359.733	848.904	2543.098	3091.036	--undefined--	--undefined--
450	0.450	0.00001	1228.946	906.546	2559.575	874.862	4295.461	1314.128
451	0.451	0.000008	1502.901	1168.567	2473.753	669.591	3444.832	768.941
452	0.452	0.000007	718.465	507.122	2510.129	764.897	3785.502	927.565
453	0.453	0.000004	2166.222	620.653	3037.434	608.136	--undefined--	--undefined--
454	0.454	0.000004	1208.551	1313.426	2317.146	932.123	--undefined--	--undefined--
455	0.455	0.000003	787.801	1134.702	2001.212	911.569	4581.824	1386.825
456	0.456	0.000003	421.140	960.954	3263.436	2896.645	4195.410	1151.274
457	0.457	0.000002	715.846	963.508	1928.790	591.532	4249.493	695.787
458	0.458	0.000002	1343.002	2462.631	2780.012	869.111	--undefined--	--undefined--
459	0.459	0.000002	1986.575	944.127	2753.194	643.373	--undefined--	--undefined--
460	0.460	0.000001	846.729	1296.930	2569.096	579.283	3905.329	1803.758
461	0.461	0.000001	1723.002	2306.647	2405.089	1850.835	3263.103	1646.927
462	0.462	0.0000008	938.910	1055.376	2423.256	976.166	3612.916	954.761
463	0.463	0.0000008	1351.850	1010.508	3624.091	622.055	--undefined--	--undefined--
464	0.464	0.0000005	1039.735	863.862	2307.894	842.312	4131.562	1108.178
465	0.465	0.0000008	993.045	1046.955	2547.135	635.811	3557.563	527.844
466	0.466	0.0000008	1964.584	763.507	3125.060	669.337	--undefined--	--undefined--
467	0.467	0.0000007	646.699	554.990	2751.767	927.066	3967.546	1120.645
468	0.468	0.000002	736.059	484.983	2766.739	1071.387	4263.893	1197.188
469	0.469	0.000002	431.520	843.459	2643.018	450.194	4596.593	925.041
470	0.470	0.0000008	514.511	936.890	1454.625	810.399	4823.005	745.790
471	0.471	0.0000005	536.440	733.585	2391.866	999.907	3691.079	793.436
472	0.472	0.000001	1498.185	2223.184	2773.036	801.789	--undefined--	--undefined--
473	0.473	0.000001	2641.186	798.567	3944.641	972.676	--undefined--	--undefined--
474	0.474	0.0000004	1341.295	4039.593	2712.082	526.649	--undefined--	--undefined--
475	0.475	0.0000004	1591.821	725.520	2444.077	503.260	4038.495	1276.378
476	0.476	0.000001	1047.201	1857.575	2339.260	467.590	3264.586	449.554
477	0.477	0.000001	1501.904	746.499	2519.770	717.205	3465.622	1008.219
478	0.478	0.0000009	1086.304	1829.674	2265.805	390.682	3141.329	391.440
479	0.479	0.0000007	1471.078	963.894	2416.343	574.143	3247.228	512.174
480	0.480	0.0000008	1746.514	452.573	2718.903	382.837	--undefined--	--undefined--
481	0.481	0.0000009	1883.761	513.139	2880.423	559.048	4226.430	4075.302
482	0.482	0.0000009	1849.272	819.580	2850.337	527.921	--undefined--	--undefined--
483	0.483	0.0000006	1951.988	497.847	2818.521	398.216	--undefined--	--undefined--
484	0.484	0.0000005	1675.317	1132.102	2672.664	831.879	3567.880	3394.853
485	0.485	0.0000003	2371.620	1390.703	2804.653	2298.082	--undefined--	--undefined--
486	0.486	0.0000003	1845.657	3532.346	2484.522	702.802	--undefined--	--undefined--
487	0.487	0.0000002	403.547	1126.709	2675.979	494.114	--undefined--	--undefined--
488	0.488	0.0000002	1601.962	2658.654	3010.221	705.190	--undefined--	--undefined--
489	0.489	0.0000002	1210.790	1961.945	2414.974	783.000	--undefined--	--undefined--
490	0.490	0.0000001	592.573	1486.821	2486.719	1141.602	--undefined--	--undefined--
491	0.491	0.0000001	2170.973	761.593	5084.050	1057.989	--undefined--	--undefined--
492	0.492	0.00000009	948.668	1242.501	2503.374	494.508	5183.508	866.511
493	0.493	0.00000006	1528.655	545.836	2593.708	612.249	5431.299	1082.954
494	0.494	0.00000005	721.891	930.148	3026.352	656.862	5087.009	447.419
495	0.495	0.00000007	648.009	532.301	2632.768	672.347	5091.723	645.186
496	0.496	0.00000008	1826.294	682.515	4412.231	955.741	--undefined--	--undefined--
497	0.497	0.0000002	1493.817	1032.514	2532.153	920.678	4906.377	803.926
498	0.498	0.0000002	2270.511	753.735	3049.261	1063.003	--undefined--	--undefined--
499	0.499	0.0000002	1766.544	1232.774	2546.114	714.871	--undefined--	--undefined--
500	0.500	0.0000002	1713.450	1201.212	2593.748	811.312	--undefined--	--undefined--
501	0.501	0.0000002	1989.450	482.416	2937.654	644.782	5044.138	1254.487
502	0.502	0.0000002	1796.407	554.615	2718.390	573.135	5349.616	1415.920
503	0.503	0.0000002	1599.565	524.800	2558.675	451.436	5263.808	1032.810
504	0.504	0.0000002	1467.602	938.477	2521.200	507.201	5104.658	734.748
505	0.505	0.0000001	1503.479	2373.224	2565.020	570.371	--undefined--	--undefined--
506	0.506	0.0000001	2187.966	1000.397	5026.572	636.564	--undefined--	--undefined--
507	0.507	0.00000008	1409.615	772.470	2433.624	516.431	5091.563	407.693
508	0.508	0.00000010	1482.148	1522.257	2503.877	752.624	5089.631	649.603
509	0.509	0.0000001	1759.134	817.387	2808.317	868.481	5066.126	786.501
510	0.510	0.0000001	1995.582	1831.877	2543.320	1183.556	5056.149	798.613
511	0.511	0.0000001	1769.503	1068.959	2663.735	631.888	5223.767	964.605
512	0.512	0.0000002	1819.751	541.949	2656.988	662.990	5039.401	358.175
513	0.513	0.0000002	1961.380	447.004	2971.313	754.073	5000.396	606.425
514	0.514	0.0000001	1815.838	463.171	2748.882	471.546	5120.504	610.439
515	0.515	0.0000001	1732.696	835.825	2451.948	1432.958	5019.426	428.246
516	0.516	0.00000008	1718.379	980.494	2805.190	613.373	5159.743	651.060
517	0.517	0.00000007	583.900	1575.659	4728.896	639.999	--undefined--	--undefined--
518	0.518	0.00000006	2658.954	1445.904	4640.221	467.336	--undefined--	--undefined--
519	0.519	0.00000006	1589.299	950.315	4995.896	674.501	--undefined--	--undefined--
520	0.520	0.00000009	1849.324	974.239	2728.228	1366.693	5042.004	484.665
521	0.521	0.00000009	1874.706	601.464	2707.906	855.006	5048.386	371.389
522	0.522	0.00000009	2026.039	596.296	2879.622	906.365	5064.642	336.491
523	0.523	0.00000009	1874.093	1207.504	2465.089	1529.027	5047.096	408.140
524	0.524	0.00000010	2036.877	733.565	2776.909	1796.256	5035.060	523.820
525	0.525	0.00000010	2173.878	610.749	3040.764	1478.028	5035.425	599.457
526	0.526	0.00000010	1880.600	551.396	2741.724	1000.180	5051.021	332.303
527	0.527	0.00000009	2128.919	6751.892	2355.255	673.797	5047.921	587.392
528	0.528	0.00000009	2045.178	717.942	2870.889	1587.202	5049.360	393.847
529	0.529	0.00000009	2042.833	982.440	2420.803	2785.175	5048.040	450.058
530	0.530	0.00000008	2249.491	547.563	4676.835	425.348	--undefined--	--undefined--
531	0.531	0.00000008	2067.769	904.783	2751.402	1765.675	5058.582	351.380
532	0.532	0.00000006	488.677	1260.708	4248.149	729.632	5110.686	530.906
533	0.533	0.00000007	2517.239	699.947	4746.528	562.290	--undefined--	--undefined--
534	0.534	0.00000009	2367.500	1572.365	4832.308	802.692	--undefined--	--undefined--
535	0.535	0.00000009	1260.823	574.792	4669.542	443.178	--undefined--	--undefined--
536	0.536	0.00000007	2035.342	1682.943	4779.763	959.335	--undefined--	--undefined--
537	0.537	0.00000007	1726.072	715.994	4805.926	700.530	--undefined--	--undefined--
538	0.538	0.00000008	3754.663	5657.099	4735.362	1203.023	--undefined--	--undefined--
539	0.539	0.00000008	1365.471	1293.553	4668.755	392.857	--undefined--	--undefined--
540	0.540	0.00000008	2884.061	1266.725	4667.549	1055.697	--undefined--	--undefined--
541	0.541	0.00000008	2289.963	1856.449	4657.448	426.757	--undefined--	--undefined--
542	0.542	0.00000009	2237.866	863.562	4735.481	376.837	--undefined--	--undefined--
543	0.543	0.00000010	1932.451	421.804	4696.275	467.667	--undefined--	--undefined--
544	0.544	0.00000010	3185.392	1825.991	4646.086	805.363	--undefined--	--undefined--
545	0.545	0.0000001	1926.469	1539.824	4678.057	586.063	--undefined--	--undefined--
546	0.546	0.0000001	822.018	861.380	4602.155	445.431	--undefined--	--undefined--
547	0.547	0.0000001	1170.589	1339.618	4977.506	1045.859	--undefined--	--undefined--
548	0.548	0.0000001	2017.147	693.521	4687.488	266.524	--undefined--	--undefined--
549	0.549	0.0000001	2320.993	704.361	4708.914	807.681	--undefined--	--undefined--
550	0.550	0.0000001	819.503	1248.648	4611.583	711.153	--undefined--	--undefined--
551	0.551	0.0000001	2459.247	725.466	4711.304	574.335	--undefined--	--undefined--
552	0.552	0.0000001	1145.109	1596.248	4678.611	427.431	--undefined--	--undefined--
553	0.553	0.0000001	2031.577	998.803	4673.749	436.914	--undefined--	--undefined--
554	0.554	0.0000001	2522.763	745.610	4742.006	452.265	--undefined--	--undefined--
555	0.555	0.0000001	2395.790	630.112	4823.488	573.667	--undefined--	--undefined--
556	0.556	0.0000001	2573.089	614.726	4799.024	740.342	--undefined--	--undefined--
557	0.557	0.0000001	1942.379	734.575	4667.596	543.274	--undefined--	--undefined--
558	0.558	0.0000001	3064.460	2374.394	4817.208	985.494	--undefined--	--undefined--
559	0.559	0.0000001	2220.679	619.986	4695.226	342.026	--undefined--	--undefined--
560	0.560	0.0000001	1422.494	574.962	4519.379	1133.620	--undefined--	--undefined--
561	0.561	0.0000001	1548.091	1104.522	4739.012	319.407	--undefined--	--undefined--
562	0.562	0.0000001	981.170	651.116	4104.161	1190.217	5084.478	741.481
563	0.563	0.0000001	776.776	1261.464	4327.279	1166.909	5109.387	701.362
564	0.564	0.0000001	1789.837	922.962	4987.242	669.262	--undefined--	--undefined--
565	0.565	0.0000001	2881.631	471.281	4837.002	761.188	--undefined--	--undefined--
566	0.566	0.0000002	2114.103	702.869	4691.855	363.091	--undefined--	--undefined--
567	0.567	0.0000002	2392.968	9084.587	2688.049	4247.516	5040.260	904.305
568	0.568	0.0000002	1907.517	1332.750	4678.175	1017.522	--undefined--	--undefined--
569	0.569	0.0000002	1826.492	897.699	4732.216	399.363	--undefined--	--undefined--
570	0.570	0.0000001	981.363	2459.378	4649.534	474.971	--undefined--	--undefined--
571	0.571	0.0000002	1502.134	2353.971	4711.112	1045.086	--undefined--	--undefined--
572	0.572	0.0000002	1714.192	563.395	4795.370	401.423	--undefined--	--undefined--
573	0.573	0.0000001	2281.311	898.142	4766.965	898.367	--undefined--	--undefined--
574	0.574	0.0000002	2448.472	531.394	4730.551	423.164	--undefined--	--undefined--
575	0.575	0.0000002	1856.887	1321.284	4711.552	695.783	--undefined--	--undefined--
576	0.576	0.0000002	2043.140	759.440	4777.384	702.343	--undefined--	--undefined--
577	0.577	0.0000002	2185.410	603.991	4894.263	779.904	--undefined--	--undefined--
578	0.578	0.0000002	2627.833	1088.522	4717.222	598.508	--undefined--	--undefined--
579	0.579	0.00002	757.455	716.367	4700.504	605.169	--undefined--	--undefined--
580	0.580	0.00077	1971.492	1457.017	2803.584	1431.950	4387.752	769.550
581	0.581	0.00077	797.194	770.788	3067.651	720.088	4923.401	1332.748
582	0.582	0.00060	1103.347	599.642	2317.359	623.482	--undefined--	--undefined--
583	0.583	0.00060	1952.118	1075.454	2889.300	636.367	5132.617	1468.464
584	0.584	0.00007	1073.978	694.130	2700.281	917.425	--undefined--	--undefined--
585	0.585	0.00007	3166.874	563.135	4791.328	2088.880	--undefined--	--undefined--
586	0.586	0.00007	726.898	2501.752	1933.669	1719.331	4368.955	882.365
587	0.587	0.00002	1712.859	3148.555	2262.417	652.016	--undefined--	--undefined--
588	0.588	0.00002	2809.032	564.336	3932.708	656.088	--undefined--	--undefined--
589	0.589	0.00001	345.674	2516.215	3206.047	941.491	4972.466	1404.366
590	0.590	0.00002	1427.004	851.670	2858.027	1169.384	--undefined--	--undefined--
591	0.591	0.00002	2001.224	1127.729	4533.035	798.278	--undefined--	--undefined--
592	0.592	0.00002	1394.581	1217.563	4628.460	1118.350	--undefined--	--undefined--
593	0.593	0.00007	572.792	792.595	2853.583	922.718	--undefined--	--undefined--
594	0.594	0.00024	965.590	620.858	2607.570	3833.889	--undefined--	--undefined--
595	0.595	0.00024	813.363	1520.841	1042.523	603.089	4177.525	1146.098
596	0.596	0.00123	950.329	482.973	3229.397	2175.635	--undefined--	--undefined--
597	0.597	0.00123	1081.633	497.188	4856.764	608.183	--undefined--	--undefined--
598	0.598	0.00333	356.072	680.571	2111.036	1068.864	5285.866	1693.606
599	0.599	0.00333	579.002	821.111	1936.020	921.407	--undefined--	--undefined--
600	0.600	0.00214	1857.397	528.354	4613.739	1280.137	--undefined--	--undefined--
601	0.601	0.00487	718.440	1409.777	1953.080	1482.031	4100.704	2132.618
602	0.602	0.00487	766.676	1512.792	1976.470	1073.397	4718.844	3053.089
603	0.603	0.00701	1067.622	706.127	2064.725	1632.299	3721.496	429.957
604	0.604	0.00701	1000.920	1185.573	2273.098	1215.770	4710.064	1141.307
605	0.605	0.00893	270.146	1174.715	2840.373	760.418	4419.276	2034.456
606	0.606	0.00893	1461.714	1598.736	4555.224	1005.481	--undefined--	--undefined--
607	0.607	0.01083	1439.080	965.434	2664.070	1496.876	4508.648	1518.886
608	0.608	0.01083	807.785	2586.204	1547.294	2301.285	4884.385	1945.372
609	0.609	0.00357	667.159	2487.202	1553.166	759.077	4531.845	620.413
610	0.610	0.00577	1194.896	595.344	3028.465	827.993	--undefined--	--undefined--
611	0.611	0.00577	854.337	1397.333	2028.129	1786.995	4373.362	694.427
612	0.612	0.00490	590.651	603.700	2335.593	1512.008	5283.112	1436.771
613	0.613	0.00490	1049.540	798.997	4406.002	716.420	--undefined--	--undefined--
614	0.614	0.00294	1117.787	545.564	2102.399	881.195	4105.218	732.804
615	0.615	0.00638	743.560	1313.226	1837.178	1530.312	4427.718	1382.876
616	0.616	0.00638	819.478	1184.145	1750.105	945.425	4508.880	605.584
617	0.617	0.00761	1045.837	720.803	3173.732	2704.619	--undefined--	--undefined--
618	0.618	0.00761	969.491	591.348	4161.884	1033.352	--undefined--	--undefined--
619	0.619	0.00552	1015.933	573.979	3246.084	1136.240	--undefined--	--undefined--
620	0.620	0.00552	560.255	842.797	1611.964	794.040	4643.264	602.915
621	0.621	0.00352	961.749	510.043	1855.224	541.389	4510.508	987.124
622	0.622	0.00653	1035.583	609.839	1975.873	1840.382	4275.057	1253.385
623	0.623	0.00653	669.946	778.345	1788.586	743.673	4503.649	1322.214
624	0.624	0.00690	1040.214	996.985	2625.775	1724.551	--undefined--	--undefined--
625	0.625	0.00690	1136.118	520.340	4742.893	662.270	--undefined--	--undefined--
626	0.626	0.00372	1114.267	889.053	2108.716	1149.540	--undefined--	--undefined--
627	0.627	0.00679	952.968	1080.987	1905.073	2136.410	4346.529	1202.374
628	0.628	0.00679	715.229	1066.171	1674.991	870.531	4625.004	803.780
629	0.629	0.01039	591.555	962.066	1629.290	1338.295	4298.041	1567.666
630	0.630	0.01039	1162.992	495.116	4395.458	522.813	--undefined--	--undefined--
631	0.631	0.00423	1131.019	815.747	2214.249	1525.779	--undefined--	--undefined--
632	0.632	0.00895	812.879	1492.233	1691.324	1793.248	4430.993	1436.421
633	0.633	0.00895	766.378	602.582	1740.025	577.769	4186.991	447.311
634	0.634	0.01202	684.593	1067.015	2358.340	2928.398	--undefined--	--undefined--
635	0.635	0.01202	997.499	737.192	1819.420	1381.928	4449.698	438.225
636	0.636	0.00430	1032.841	643.367	2012.956	918.008	4379.240	1885.028
637	0.637	0.01116	803.777	1322.631	1947.464	1500.095	4369.901	1261.501
638	0.638	0.01116	927.893	924.261	1854.227	1165.356	4490.729	1097.011
639	0.639	0.01232	840.648	1028.411	4588.314	904.591	--undefined--	--undefined--
640	0.640	0.01232	1318.486	817.103	1526.388	2457.224	4639.166	643.999
641	0.641	0.00590	1072.331	745.459	1972.726	895.780	4513.559	925.623
642	0.642	0.01357	1163.213	1430.592	2038.536	2300.584	4601.629	1367.033
643	0.643	0.01357	697.527	1076.923	2294.103	1513.972	4249.017	681.557
644	0.644	0.01801	514.963	627.336	1852.659	532.244	4261.375	699.668
645	0.645	0.01801	1192.709	3127.636	1394.718	856.597	4658.191	785.112
646	0.646	0.00718	881.787	629.472	1873.836	479.532	4141.604	594.549
647	0.647	0.02657	1258.327	706.481	3018.007	4425.143	4360.522	2446.976
648	0.648	0.02657	494.078	1072.019	2609.135	1040.264	4172.722	645.629
649	0.649	0.02663	873.198	1095.588	2054.651	766.951	4935.703	1655.445
650	0.650	0.02663	826.271	1071.696	1923.313	893.059	4593.560	1053.034
651	0.651	0.01289	986.183	1029.643	1939.318	882.116	4411.468	848.009
652	0.652	0.03072	978.336	897.416	2061.906	1081.147	--undefined--	--undefined--
653	0.653	0.03072	956.353	1335.496	1691.448	930.455	4286.961	486.492
654	0.654	0.01264	1116.265	595.767	2077.190	628.920	3996.562	892.805
655	0.655	0.03559	1123.003	702.281	2397.276	1221.847	4085.840	908.984
656	0.656	0.03559	2309.743	685.194	3934.476	874.567	--undefined--	--undefined--
657	0.657	0.02820	1388.974	618.402	2407.029	919.037	4019.624	2177.650
658	0.658	0.02820	896.811	951.935	1962.792	830.182	4381.840	813.348
659	0.659	0.00982	992.041	940.483	1939.346	681.203	4299.705	590.712
660	0.660	0.04221	1190.742	421.545	3685.387	1285.603	--undefined--	--undefined--
661	0.661	0.04221	1003.117	2492.758	1495.960	851.675	4289.385	501.854
662	0.662	0.01066	1175.232	553.464	2114.819	606.230	4180.443	625.970
663	0.663	0.02771	1151.611	687.423	2745.653	2336.800	4116.408	1478.666
664	0.664	0.02771	2438.819	939.955	4015.353	930.450	--undefined--	--undefined--
665	0.665	0.02597	1220.405	814.116	2178.599	840.264	3955.424	808.234
666	0.666	0.02973	909.329	1132.187	2030.009	1125.135	4088.090	1079.346
667	0.667	0.02973	1088.313	1580.894	1848.749	1150.571	4232.371	562.440
668	0.668	0.03296	1485.136	586.767	4414.350	625.947	--undefined--	--undefined--
669	0.669	0.03296	1005.691	556.128	1874.860	579.905	4541.662	539.842
670	0.670	0.00816	925.597	583.414	1899.704	464.150	4265.650	581.268
671	0.671	0.03430	1052.893	650.817	3636.318	700.743	--undefined--	--undefined--
672	0.672	0.03430	872.284	1220.741	1890.904	1104.589	4088.951	628.189
673	0.673	0.01087	1230.938	1080.977	2176.533	1476.756	4366.402	1419.104
674	0.674	0.03206	1161.791	667.576	2910.831	1165.392	--undefined--	--undefined--
675	0.675	0.03206	1235.516	2256.256	2592.538	1816.195	4173.069	1330.948
676	0.676	0.00956	1239.653	744.355	2048.189	1024.269	4145.142	675.217
677	0.677	0.03473	1017.223	1441.199	2016.359	1690.835	4233.123	2345.447
678	0.678	0.03473	1854.132	883.651	3926.962	1011.863	--undefined--	--undefined--
679	0.679	0.02837	1219.559	574.106	2003.863	756.706	4045.188	749.989
680	0.680	0.02837	882.318	742.497	1869.731	606.318	4557.715	883.927
681	0.681	0.00943	868.887	1226.811	1906.469	931.095	3992.940	837.347
682	0.682	0.02509	799.792	1291.841	1886.951	1270.830	5064.254	1832.155
683	0.683	0.02509	1023.219	566.049	1905.122	619.577	4321.490	548.661
684	0.684	0.01031	1070.210	553.136	2099.775	555.643	4203.427	1532.836
685	0.685	0.01649	725.975	1110.564	1249.952	1408.525	4545.901	858.296
686	0.686	0.01649	845.854	951.346	1796.388	704.691	4194.689	513.788
687	0.687	0.00637	1044.033	723.440	2073.656	728.408	4110.135	1439.682
688	0.688	0.02610	991.428	872.868	1485.523	2983.732	4765.600	1565.588
689	0.689	0.02610	922.188	1250.977	2059.602	1182.743	4070.741	759.859
690	0.690	0.00892	1022.368	1022.999	1965.551	1001.707	4019.021	1230.393
691	0.691	0.02197	1079.709	620.641	2132.337	2322.921	4476.059	1432.698
692	0.692	0.02197	969.336	957.953	2346.551	1100.543	3930.028	770.712
693	0.693	0.00611	1080.859	820.076	1842.140	888.588	3980.249	629.529
694	0.694	0.02657	1058.987	856.570	2214.879	1881.981	4082.850	1242.519
695	0.695	0.02657	1221.037	1141.189	2544.253	1145.092	4030.684	704.727
696	0.696	0.00769	1202.779	755.110	1831.407	1010.981	4146.304	543.481
697	0.697	0.02160	889.523	977.236	2083.413	1252.501	3893.350	1057.480
698	0.698	0.02160	2187.870	1336.901	4025.273	1112.957	--undefined--	--undefined--
699	0.699	0.00590	1044.115	559.319	1914.576	523.576	3816.727	563.042
700	0.700	0.01666	984.942	1500.877	2057.539	1813.564	4104.004	2524.607
701	0.701	0.01666	2106.501	560.935	3862.713	763.757	--undefined--	--undefined--
702	0.702	0.00551	1108.715	691.479	1977.095	726.531	3976.272	844.185
703	0.703	0.02055	833.285	967.656	1994.448	922.153	3672.849	956.906
704	0.704	0.02055	223.215	2593.119	2196.106	906.271	3949.995	612.659
705	0.705	0.00669	1095.642	734.095	1997.350	839.419	3845.663	797.103
706	0.706	0.02317	824.629	939.918	1983.946	915.948	3617.597	848.702
707	0.707	0.02317	771.221	1428.366	2474.051	1463.949	3955.053	649.910
708	0.708	0.00591	1147.748	876.723	2000.412	1176.052	3934.039	1084.752
709	0.709	0.01568	775.067	903.836	1893.437	877.502	3556.949	951.627
710	0.710	0.01568	802.859	732.830	2372.009	842.908	3946.925	664.632
711	0.711	0.00372	959.317	542.704	1890.414	464.828	3791.043	1178.663
712	0.712	0.01538	1113.625	1536.588	1773.536	3047.822	3019.432	2804.429
713	0.713	0.01538	815.894	385.496	2763.509	1356.599	3990.567	904.365
714	0.714	0.00474	913.050	542.883	1799.670	440.216	4018.163	744.064
715	0.715	0.01370	845.650	867.962	1905.602	1343.068	3565.536	887.455
716	0.716	0.01370	956.659	464.711	2375.993	1915.984	3882.584	688.093
717	0.717	0.00374	1030.316	620.889	1835.855	676.205	4116.402	803.480
718	0.718	0.01512	1010.289	617.816	2884.638	917.706	--undefined--	--undefined--
719	0.719	0.01512	969.842	737.000	2004.856	1223.187	4020.593	870.223
720	0.720	0.00487	1051.402	560.247	1948.264	681.202	3877.637	1035.217
721	0.721	0.01272	861.141	426.220	3024.414	876.582	--undefined--	--undefined--
722	0.722	0.01272	799.436	712.971	1853.862	625.183	4027.890	1245.974
723	0.723	0.00508	1029.121	864.001	1992.829	923.179	3650.038	2069.386
724	0.724	0.01437	1007.562	724.729	2389.427	1100.053	--undefined--	--undefined--
725	0.725	0.01437	796.150	777.253	1821.749	617.528	4453.770	1261.854
726	0.726	0.00637	952.935	686.273	1993.458	610.394	3927.595	1869.359
727	0.727	0.00800	514.976	1190.450	1287.195	898.417	3862.389	1096.567
728	0.728	0.01032	944.031	471.338	1856.006	459.807	4834.393	1686.497
729	0.729	0.01032	983.667	561.662	1908.989	834.784	4164.712	1221.817
730	0.730	0.00502	1134.688	829.807	2212.676	1043.492	--undefined--	--undefined--
731	0.731	0.00712	1158.510	1045.851	2209.863	1019.356	--undefined--	--undefined--
732	0.732	0.00712	1004.127	467.415	3911.926	423.141	--undefined--	--undefined--
733	0.733	0.00282	1040.677	546.368	1910.455	661.661	5059.637	2509.153
734	0.734	0.00851	474.928	1241.294	2323.263	996.240	3971.379	1659.060
735	0.735	0.00851	915.487	636.045	2026.924	896.521	3769.396	820.258
736	0.736	0.00288	1048.025	561.002	1920.615	587.921	3746.852	1287.180
737	0.737	0.00698	770.512	635.423	2208.012	579.756	4370.163	1348.694
738	0.738	0.00698	831.107	712.715	1855.723	537.441	4730.777	2430.446
739	0.739	0.00205	1167.942	1057.190	2221.137	1086.486	--undefined--	--undefined--
740	0.740	0.00496	1081.595	782.561	3096.160	1310.001	--undefined--	--undefined--
741	0.741	0.00535	1156.949	527.490	2112.063	515.103	--undefined--	--undefined--
742	0.742	0.00535	793.706	748.381	1923.038	701.236	4525.420	2192.770
743	0.743	0.00215	920.178	828.417	1831.739	805.668	2890.829	775.428
744	0.744	0.00672	940.295	1685.950	1988.693	1554.281	3313.747	1911.611
745	0.745	0.00672	665.278	676.051	2482.125	833.176	3839.290	783.495
746	0.746	0.00420	1021.020	615.308	1833.637	565.377	4133.014	941.954
747	0.747	0.00534	992.231	1685.036	2620.274	1768.508	4383.536	1865.741
748	0.748	0.00534	1240.668	810.604	2264.928	853.540	--undefined--	--undefined--
749	0.749	0.00332	1298.885	607.597	2409.496	649.683	--undefined--	--undefined--
750	0.750	0.00540	1023.970	363.814	2917.251	758.744	--undefined--	--undefined--
751	0.751	0.00624	1251.386	465.607	2215.668	411.368	--undefined--	--undefined--
752	0.752	0.00624	663.349	702.356	1771.499	731.486	4030.658	2004.537
753	0.753	0.00516	1255.135	538.021	2344.138	617.832	--undefined--	--undefined--
754	0.754	0.00649	2041.681	846.688	3231.739	1793.507	--undefined--	--undefined--
755	0.755	0.00649	1126.311	669.366	2343.732	1057.498	--undefined--	--undefined--
756	0.756	0.00407	1068.181	595.398	1967.460	737.819	2894.490	2270.990
757	0.757	0.00395	882.459	826.181	1646.827	1103.512	--undefined--	--undefined--
758	0.758	0.00569	1240.975	390.767	2148.596	334.494	--undefined--	--undefined--
759	0.759	0.00569	1007.422	566.159	2263.267	719.551	--undefined--	--undefined--
760	0.760	0.00290	1007.920	1228.366	1668.530	1728.404	2544.351	1577.895
761	0.761	0.00583	1402.754	814.448	2467.767	1108.126	3859.641	3744.297
762	0.762	0.00583	1221.251	941.593	2335.707	1079.450	--undefined--	--undefined--
763	0.763	0.00274	1054.891	437.562	1920.966	408.488	3732.708	1801.727
764	0.764	0.00604	2031.066	791.230	2768.622	697.457	--undefined--	--undefined--
765	0.765	0.00604	1164.838	600.060	2121.030	636.712	--undefined--	--undefined--
766	0.766	0.00597	1220.593	752.214	2308.578	620.158	--undefined--	--undefined--
767	0.767	0.00349	898.955	944.624	1774.672	881.357	2629.443	784.387
768	0.768	0.00729	1411.320	714.684	2461.591	853.029	--undefined--	--undefined--
769	0.769	0.00729	1075.547	661.119	2108.999	687.086	3773.542	1576.954
770	0.770	0.00387	1147.548	601.599	2063.943	611.595	--undefined--	--undefined--
771	0.771	0.00900	1376.700	1220.089	2287.871	565.249	--undefined--	--undefined--
772	0.772	0.00900	1195.364	569.549	2131.356	507.846	--undefined--	--undefined--
773	0.773	0.00809	835.206	1203.342	2054.752	736.881	3632.371	2205.845
774	0.774	0.00576	1244.568	654.638	2323.284	761.276	2791.492	4190.594
775	0.775	0.00935	1358.109	571.342	2263.972	606.425	--undefined--	--undefined--
776	0.776	0.00935	1325.266	634.559	2324.129	534.201	--undefined--	--undefined--
777	0.777	0.00419	934.108	906.713	1840.258	798.459	2836.315	1034.158
778	0.778	0.00419	211.818	1280.951	2227.884	596.718	3113.433	1467.927
779	0.779	0.00969	1228.577	865.152	2188.396	690.509	--undefined--	--undefined--
780	0.780	0.00969	1869.987	1123.487	2344.725	680.001	--undefined--	--undefined--
781	0.781	0.00499	1196.060	805.419	2121.793	719.445	--undefined--	--undefined--
782	0.782	0.00987	1376.626	443.604	2255.816	696.980	4550.758	1411.609
783	0.783	0.00987	1228.488	484.246	2144.646	411.907	--undefined--	--undefined--
784	0.784	0.00676	1136.692	708.375	2149.629	865.393	2864.325	2587.998
785	0.785	0.00458	1413.384	847.584	2533.462	583.981	--undefined--	--undefined--
786	0.786	0.00998	1217.980	684.995	2085.344	799.342	4560.482	2373.730
787	0.787	0.00998	1151.989	760.497	2161.058	891.370	3664.898	2814.602
788	0.788	0.00514	1000.064	864.869	1940.564	824.066	3274.779	1500.714
789	0.789	0.00248	489.156	900.923	2086.389	561.279	3945.244	1006.889
790	0.790	0.00951	1355.982	702.105	2401.084	704.519	--undefined--	--undefined--
791	0.791	0.00951	2009.013	516.948	3259.240	1395.236	--undefined--	--undefined--
792	0.792	0.00444	1128.966	717.027	2018.205	578.253	--undefined--	--undefined--
793	0.793	0.00951	1353.530	547.499	2380.675	738.410	--undefined--	--undefined--
794	0.794	0.00951	1069.328	487.243	1983.882	492.309	3865.870	2034.622
795	0.795	0.00727	933.348	717.154	1959.878	416.800	4291.019	1698.648
796	0.796	0.00476	1259.928	641.843	2241.894	696.324	3533.307	1826.126
797	0.797	0.01103	1232.222	572.680	2037.108	795.864	3849.795	2112.263
798	0.798	0.01103	997.799	816.916	1964.731	566.281	--undefined--	--undefined--
799	0.799	0.00643	1165.256	588.265	2130.503	731.476	3541.366	1942.642
800	0.800	0.00643	2044.390	489.890	3264.793	1023.386	--undefined--	--undefined--
801	0.801	0.01167	1001.337	684.210	1820.852	620.217	3796.499	730.981
802	0.802	0.01167	1215.143	1279.065	2143.114	960.485	3933.293	1184.270
803	0.803	0.00531	1012.512	899.612	1952.888	848.934	3821.766	1171.561
804	0.804	0.00190	760.704	1042.326	1848.698	595.902	4124.729	881.644
805	0.805	0.00909	1186.340	696.856	2213.975	1343.452	4069.659	1733.269
806	0.806	0.00909	1515.943	1825.376	2213.883	1099.056	3928.344	790.166
807	0.807	0.00387	980.711	593.767	1831.735	513.251	4002.494	509.112
808	0.808	0.00154	967.928	871.635	1941.297	820.047	3849.553	1094.608
809	0.809	0.01047	987.266	1083.194	1927.478	1135.657	3969.658	1619.137
810	0.810	0.01047	1967.312	617.999	3920.835	583.758	--undefined--	--undefined--
811	0.811	0.00388	1148.980	673.719	1994.018	825.867	4113.328	774.659
812	0.812	0.00927	1215.729	626.559	2220.769	858.839	4013.186	1712.130
813	0.813	0.00927	911.223	1176.167	1833.262	964.789	4334.678	1068.978
814	0.814	0.00474	1698.149	598.008	4062.090	579.029	--undefined--	--undefined--
815	0.815	0.00186	1108.519	594.479	2075.251	634.176	4033.813	1067.982
816	0.816	0.00711	1195.142	530.257	2190.123	645.289	4014.670	2880.967
817	0.817	0.00711	849.023	841.134	1834.751	645.604	4201.561	616.767
818	0.818	0.00354	590.975	2280.470	1752.987	829.663	4108.852	501.551
819	0.819	0.00185	1162.729	681.604	2154.808	655.728	4228.912	635.839
820	0.820	0.00666	1091.706	470.046	2023.422	459.871	4239.674	1324.119
821	0.821	0.00666	846.950	1408.464	1682.334	977.925	4270.926	629.436
822	0.822	0.00224	1536.377	847.385	4074.749	648.172	--undefined--	--undefined--
823	0.823	0.00158	1229.540	727.068	1849.651	2083.527	4184.661	505.805
824	0.824	0.01100	1091.344	614.725	1905.608	692.464	4339.994	471.829
825	0.825	0.01100	880.283	1352.714	1772.188	1065.002	4354.384	982.525
826	0.826	0.00406	839.625	2230.348	1693.248	822.074	4106.027	398.843
827	0.827	0.00206	1127.309	659.349	2091.387	956.495	4228.371	678.876
828	0.828	0.00668	1078.501	420.996	1983.685	435.499	4068.062	749.395
829	0.829	0.00668	834.611	1123.316	1856.802	1077.852	4102.208	876.070
830	0.830	0.00595	1606.904	757.348	4095.318	787.528	--undefined--	--undefined--
831	0.831	0.00175	1094.101	649.261	2107.389	890.410	4038.816	734.536
832	0.832	0.00160	1124.714	549.083	2063.499	667.486	4298.136	1144.405
833	0.833	0.00570	930.381	1102.896	2022.871	1607.523	3911.256	1286.308
834	0.834	0.00570	760.219	2096.132	3066.711	2406.447	4126.911	1116.560
835	0.835	0.00127	959.110	871.008	1871.733	954.464	3978.134	589.146
836	0.836	0.00117	1124.534	952.707	2001.603	1522.311	4306.637	1461.694
837	0.837	0.00842	1026.025	601.861	2381.786	1377.989	3964.413	1303.565
838	0.838	0.00842	974.774	1953.437	2452.258	2269.451	4068.857	982.034
839	0.839	0.00159	837.034	1688.559	1533.750	845.721	4059.050	559.556
840	0.840	0.00130	787.349	1065.791	2288.349	1694.172	3941.528	628.262
841	0.841	0.00730	1062.731	504.273	3077.793	974.118	--undefined--	--undefined--
842	0.842	0.00730	875.319	1767.648	1819.733	1969.505	4076.036	660.837
843	0.843	0.00143	1141.618	946.608	1775.511	1463.309	4061.535	684.545
844	0.844	0.00138	713.744	948.084	3535.688	3176.603	3968.550	845.347
845	0.845	0.00677	718.818	942.340	1883.013	1136.078	3795.388	2008.224
846	0.846	0.00677	942.835	1347.583	1605.209	982.165	4203.433	435.962
847	0.847	0.00462	1313.215	1215.838	1368.665	2212.136	4199.616	740.729
848	0.848	0.00141	1137.985	879.299	2642.859	3478.523	4036.515	577.752
849	0.849	0.00762	886.668	666.344	1849.126	573.111	4273.837	926.065
850	0.850	0.00762	1185.139	1085.999	1560.493	1460.568	4229.405	499.390
851	0.851	0.00354	527.629	1894.341	1676.577	1687.766	4069.593	512.621
852	0.852	0.00104	987.523	1187.867	1801.903	945.319	4226.945	411.790
853	0.853	0.00103	1081.710	602.985	1900.844	631.952	4216.909	593.968
854	0.854	0.00676	1338.978	1336.524	4296.056	1518.734	--undefined--	--undefined--
855	0.855	0.00676	815.852	664.826	3439.401	2179.457	4034.506	676.972
856	0.856	0.00130	1185.588	863.469	2111.613	1569.319	4110.072	713.118
857	0.857	0.00116	1101.745	1129.285	1978.757	1170.363	4269.113	686.086
858	0.858	0.00318	883.480	470.836	3070.671	967.301	4570.300	3460.809
859	0.859	0.00318	1315.781	1236.784	1522.460	2898.964	4097.735	789.087
860	0.860	0.00099	1338.572	627.643	1729.893	2919.502	4017.081	479.479
861	0.861	0.00095	1358.898	1223.687	2112.446	1287.366	4116.944	662.718
862	0.862	0.00358	680.470	769.684	1839.805	619.556	3867.725	839.556
863	0.863	0.00378	1213.835	847.857	1907.144	1591.343	4207.875	627.255
864	0.864	0.00378	1584.209	1256.074	1889.579	1087.803	4267.171	455.668
865	0.865	0.00100	1022.075	700.334	1940.887	569.718	4085.572	715.252
866	0.866	0.00100	2130.598	567.499	4515.939	1014.628	--undefined--	--undefined--
867	0.867	0.00390	1193.069	1381.089	2017.107	1560.885	4160.971	1181.303
868	0.868	0.00390	1546.302	613.084	4027.898	625.680	--undefined--	--undefined--
869	0.869	0.00124	1440.604	555.178	2429.389	1106.401	4082.492	682.806
870	0.870	0.00091	1225.829	908.614	1917.543	1161.027	4262.203	870.866
871	0.871	0.00625	1419.136	852.403	2222.257	586.891	--undefined--	--undefined--
872	0.872	0.00625	1105.706	1842.569	1596.109	925.622	4199.162	486.988
873	0.873	0.00326	1327.465	790.820	2160.061	1521.566	4197.793	692.800
874	0.874	0.00096	1231.348	610.252	2092.138	753.566	4193.094	578.261
875	0.875	0.00665	889.842	1414.286	1928.590	672.229	4312.979	664.224
876	0.876	0.00665	949.074	1613.557	1687.945	1141.700	4280.241	882.749
877	0.877	0.00401	1858.034	706.483	3933.481	555.440	--undefined--	--undefined--
878	0.878	0.00091	1427.833	458.331	2448.891	931.878	4007.441	498.714
879	0.879	0.00053	1044.760	2209.436	1633.326	830.767	4099.274	655.767
880	0.880	0.00671	572.761	1443.263	1570.187	804.671	4424.981	788.048
881	0.881	0.00671	899.857	1720.592	1593.673	919.409	4197.448	471.557
882	0.882	0.00188	1221.106	769.067	2038.138	1214.491	4186.677	584.543
883	0.883	0.00101	1226.044	552.327	2123.543	646.200	4156.919	591.308
884	0.884	0.00035	832.815	855.433	1953.238	584.294	4145.726	626.896
885	0.885	0.00445	1259.977	1994.409	1385.318	1911.687	4089.861	1267.568
886	0.886	0.00445	1348.186	950.395	3916.556	533.572	--undefined--	--undefined--
887	0.887	0.00079	1419.987	538.166	2545.666	1242.304	4045.626	690.678
888	0.888	0.00047	1292.083	714.552	2012.058	1562.394	4076.152	633.649
889	0.889	0.00374	2016.857	993.161	4913.194	2046.633	--undefined--	--undefined--
890	0.890	0.00374	1030.635	594.816	1875.914	735.848	4069.163	466.560
891	0.891	0.00168	597.003	2726.907	2040.211	964.952	4051.590	1079.750
892	0.892	0.00024	1085.458	2170.372	1576.303	788.032	4028.256	689.203
893	0.893	0.00037	710.083	1789.103	2172.161	1007.431	3748.762	668.561
894	0.894	0.00245	1105.713	477.740	3327.213	1428.375	--undefined--	--undefined--
895	0.895	0.00245	1005.803	753.057	1932.996	888.492	4095.829	631.706
896	0.896	0.00035	992.458	618.821	1907.947	566.213	4228.167	604.490
897	0.897	0.00013	1023.061	709.686	1991.080	596.556	4199.205	1139.844
898	0.898	0.00011	620.233	1670.559	1777.478	1400.626	3863.585	728.863
899	0.899	0.00215	930.765	1719.581	1726.060	1632.573	4347.089	1687.167
900	0.900	0.00215	1517.821	883.055	3970.366	679.694	--undefined--	--undefined--
901	0.901	0.00023	1359.277	577.300	2250.983	919.832	3864.270	758.379
902	0.902	0.00019	1152.441	690.156	1976.024	884.473	4370.309	1442.602
903	0.903	0.00241	354.623	1043.555	1963.006	1455.736	4763.701	1007.773
904	0.904	0.00241	999.017	663.167	1803.111	764.237	4184.584	677.045
905	0.905	0.00114	2381.182	987.171	4012.026	660.651	--undefined--	--undefined--
906	0.906	0.00013	1605.431	677.218	3902.709	513.932	--undefined--	--undefined--
907	0.907	0.00013	1798.842	1154.705	3915.191	1745.105	--undefined--	--undefined--
908	0.908	0.00184	1110.717	975.009	2407.488	1875.074	--undefined--	--undefined--
909	0.909	0.00184	802.263	759.685	1743.015	561.773	4213.170	688.534
910	0.910	0.00074	1128.365	769.504	2177.308	953.849	4676.390	934.698
911	0.911	0.00014	1104.824	588.480	2027.175	734.311	3977.857	1455.758
912	0.912	0.00016	1113.673	926.721	3949.110	1064.200	--undefined--	--undefined--
913	0.913	0.00134	842.167	382.451	2793.790	1132.455	4130.102	1196.082
914	0.914	0.00134	1072.290	659.538	2001.560	986.313	3925.407	830.636
915	0.915	0.00025	1051.428	4301.376	1291.692	922.718	3882.487	497.262
916	0.916	0.00014	917.706	804.937	1949.922	706.962	4600.755	1541.038
917	0.917	0.00014	899.450	362.627	1689.773	349.162	3957.763	396.274
918	0.918	0.00130	813.404	1347.060	1963.763	1843.334	4439.078	2072.097
919	0.919	0.00130	799.355	850.820	1759.836	645.458	3994.617	686.446
920	0.920	0.00013	540.966	1509.472	1735.492	1323.904	3906.584	794.856
921	0.921	0.00008	997.851	658.489	1835.229	833.867	4083.697	969.478
922	0.922	0.00042	1167.079	767.502	2909.194	2813.931	--undefined--	--undefined--
923	0.923	0.00064	756.747	1009.835	1924.025	884.242	4209.744	1136.148
924	0.924	0.00064	773.302	1062.956	1797.535	695.640	3922.610	709.513
925	0.925	0.00006	1027.525	1197.607	2068.924	939.168	3810.730	660.404
926	0.926	0.00006	845.806	757.428	1759.369	528.310	4156.444	1224.663
927	0.927	0.00047	563.621	742.190	2549.793	846.924	--undefined--	--undefined--
928	0.928	0.00047	811.516	749.653	1828.658	605.235	4367.892	635.989
929	0.929	0.00031	966.458	1331.517	1958.189	822.945	3892.652	983.167
930	0.930	0.00007	1641.377	884.763	1759.277	2990.405	4127.927	1069.654
931	0.931	0.00005	902.484	1347.565	1717.762	945.244	4240.642	1483.086
932	0.932	0.00043	542.936	624.344	1987.604	4122.548	3493.592	1609.375
933	0.933	0.00043	920.966	743.740	1829.022	639.558	4495.870	660.623
934	0.934	0.00033	1148.636	1292.497	2059.462	715.373	3708.810	888.320
935	0.935	0.00006	1414.418	526.981	2103.038	966.133	4160.617	617.745
936	0.936	0.00006	935.959	1164.557	1866.418	960.263	3540.695	1447.364
937	0.937	0.00046	527.635	891.065	2083.617	1279.554	3513.143	3021.420
938	0.938	0.00046	1122.043	764.843	1848.984	1072.720	4592.580	784.537
939	0.939	0.00026	1564.820	1323.780	1993.976	1028.739	4023.850	1145.404
940	0.940	0.00005	1247.975	2241.052	1801.632	625.928	4011.629	532.139
941	0.941	0.00004	1050.982	1019.287	1914.666	1012.111	4011.800	1569.499
942	0.942	0.00049	500.704	1212.565	1411.421	1042.472	4854.032	900.058
943	0.943	0.00049	1060.691	554.535	1941.146	656.624	4176.199	650.771
944	0.944	0.00027	1245.323	733.065	2074.550	595.349	4253.745	860.169
945	0.945	0.00007	1410.163	736.440	2096.388	980.231	4060.190	566.516
946	0.946	0.00004	1106.787	680.250	2009.074	687.229	3770.790	887.149
947	0.947	0.00053	557.267	1065.803	2105.927	853.471	--undefined--	--undefined--
948	0.948	0.00053	1039.027	709.833	1886.884	750.255	4417.159	887.180
949	0.949	0.00035	1066.658	920.081	1974.224	510.294	4180.389	532.790
950	0.950	0.00007	1311.962	778.809	2162.651	931.230	3986.857	656.043
951	0.951	0.00006	1110.197	548.401	1989.381	583.779	3852.983	786.141
952	0.952	0.00037	1035.541	862.189	2051.273	643.840	--undefined--	--undefined--
953	0.953	0.00037	985.828	663.782	1879.112	586.770	4383.934	843.550
954	0.954	0.00030	1075.173	630.490	1994.633	415.937	4103.946	666.022
955	0.955	0.00007	1423.396	743.584	2267.816	1269.175	4457.963	1770.998
956	0.956	0.00004	1243.208	542.115	2033.517	785.444	4679.005	895.854
957	0.957	0.00042	800.536	898.003	1818.798	365.767	--undefined--	--undefined--
958	0.958	0.00042	1014.041	649.892	1890.832	627.880	4329.233	911.835
959	0.959	0.00028	1071.575	697.238	2036.388	425.975	4136.574	881.854
960	0.960	0.00005	1149.898	832.845	2002.627	753.291	4068.133	1118.051
961	0.961	0.00005	1198.752	577.575	2061.725	797.906	4621.432	1531.324
962	0.962	0.00041	1031.383	899.887	1939.105	635.584	4405.957	1412.151
963	0.963	0.00041	995.079	617.075	1885.346	566.686	4526.550	1018.438
964	0.964	0.00032	1055.950	754.143	2028.629	461.455	4096.400	1466.642
965	0.965	0.00005	1117.338	706.940	2015.748	608.134	3935.652	883.137
966	0.966	0.00004	1132.483	483.987	1976.856	565.509	4638.432	1858.970
967	0.967	0.00053	1212.055	526.256	1880.631	928.188	4827.739	1018.550
968	0.968	0.00053	1032.437	495.214	1929.501	522.488	4267.430	1100.591
969	0.969	0.00031	1154.876	911.827	2068.879	482.713	4050.639	1137.545
970	0.970	0.00006	1147.316	927.341	1962.899	768.954	4340.314	1134.293
971	0.971	0.00006	1081.480	518.580	1967.431	588.508	3702.544	1289.661
972	0.972	0.00050	886.055	884.977	1843.254	699.722	4767.748	694.325
973	0.973	0.00050	1043.474	525.669	1931.626	590.092	4660.753	1044.638
974	0.974	0.00029	1994.251	523.404	3501.290	1704.867	--undefined--	--undefined--
975	0.975	0.00004	1138.443	1235.042	1837.910	814.412	4208.012	888.639
976	0.976	0.00004	1049.457	584.391	1949.359	606.656	3913.695	1496.877
977	0.977	0.00039	1258.488	734.357	2577.928	1111.198	--undefined--	--undefined--
978	0.978	0.00039	985.300	517.527	1921.934	498.886	4401.916	1048.948
979	0.979	0.00026	1982.777	506.890	3516.246	1224.640	--undefined--	--undefined--
980	0.980	0.00004	1265.846	699.588	2023.718	702.964	4031.247	1040.774
981	0.981	0.00004	1055.195	890.382	1953.811	889.894	3352.600	3054.409
982	0.982	0.00042	1022.930	593.134	4075.820	2597.018	--undefined--	--undefined--
983	0.983	0.00042	854.438	862.454	1889.197	722.056	4155.645	1962.614
984	0.984	0.00038	811.768	1250.313	1917.162	787.609	3451.249	807.687
985	0.985	0.00004	1839.720	727.367	2893.972	1932.209	--undefined--	--undefined--
986	0.986	0.00005	1247.098	539.164	2190.625	503.737	--undefined--	--undefined--
987	0.987	0.00016	1095.310	638.178	3815.032	384.642	--undefined--	--undefined--
988	0.988	0.00044	831.825	998.640	1914.833	819.191	3935.601	1678.022
989	0.989	0.00044	865.951	1241.756	1779.111	785.133	4164.267	1630.092
990	0.990	0.00005	1049.914	1163.244	2032.183	806.458	5181.382	1617.473
991	0.991	0.00005	1167.397	759.364	2066.754	588.892	--undefined--	--undefined--
992	0.992	0.00005	579.387	596.721	1590.218	515.335	4557.821	1154.564
993	0.993	0.00043	1139.244	928.702	2152.848	1375.559	4726.757	1856.951
994	0.994	0.00043	967.442	796.907	1834.204	729.246	4245.929	1430.008
995	0.995	0.00009	997.707	688.417	2004.353	519.896	5042.277	1100.422
996	0.996	0.00005	1141.378	536.051	2040.055	587.517	--undefined--	--undefined--
997	0.997	0.00005	688.610	946.612	1717.534	850.759	--undefined--	--undefined--
998	0.998	0.00049	1274.134	715.301	2435.414	1470.987	--undefined--	--undefined--
999	0.999	0.00049	1068.869	631.193	2018.949	653.353	--undefined--	--undefined--
1000	1.000	0.00015	1010.760	483.207	1919.365	394.493	5072.772	836.799
1001	1.001	0.00004	1096.988	762.537	1948.785	838.764	2944.702	1191.828
1002	1.002	0.00004	1103.865	687.459	2003.816	589.260	--undefined--	--undefined--
1003	1.003	0.00031	1144.563	635.982	2887.796	821.739	--undefined--	--undefined--
1004	1.004	0.00031	1057.302	821.845	1934.138	902.514	3715.469	4243.767
1005	1.005	0.00024	1658.715	1035.939	3654.336	1524.766	--undefined--	--undefined--
1006	1.006	0.00004	1073.669	793.075	2003.363	816.469	4124.901	788.618
1007	1.007	0.00004	1187.635	380.855	2028.388	461.338	4287.356	1253.834
1008	1.008	0.00030	976.606	418.261	1853.106	411.138	3898.469	1341.257
1009	1.009	0.00030	972.096	867.781	1970.959	743.120	--undefined--	--undefined--
1010	1.010	0.00014	1868.054	563.145	2803.322	1583.697	--undefined--	--undefined--
1011	1.011	0.00002	568.406	782.921	2029.611	577.102	4217.797	1192.029
1012	1.012	0.00001	659.373	657.005	1662.358	467.045	3649.473	1604.931
1013	1.013	0.00002	894.205	817.017	1897.600	716.331	--undefined--	--undefined--
1014	1.014	0.00018	949.132	1161.017	2052.785	1654.205	--undefined--	--undefined--
1015	1.015	0.00018	839.132	903.035	1773.197	667.753	4677.282	1783.941
1016	1.016	0.00001	1166.870	768.140	2321.902	843.795	--undefined--	--undefined--
1017	1.017	0.000008	897.917	488.362	1769.504	452.418	3623.104	971.591
1018	1.018	0.000008	591.498	776.715	1722.565	796.868	5142.533	905.717
1019	1.019	0.00020	846.921	1043.962	1693.167	745.755	--undefined--	--undefined--
1020	1.020	0.00020	1127.611	805.929	2060.749	743.676	--undefined--	--undefined--
1021	1.021	0.00004	760.009	917.526	1742.876	628.295	4185.454	2164.906
1022	1.022	0.000010	1101.694	656.116	2046.083	860.069	3769.720	1150.159
1023	1.023	0.000010	1184.281	348.959	2058.254	449.620	4639.620	2181.200
1024	1.024	0.00012	1261.012	545.551	2084.006	1314.364	4621.266	541.849
1025	1.025	0.00012	851.971	652.456	1802.579	509.549	4598.385	1130.399
1026	1.026	0.00005	1889.455	593.958	3600.749	1207.390	--undefined--	--undefined--
1027	1.027	0.000009	489.012	620.401	2178.557	708.254	4058.333	771.840
1028	1.028	0.000009	733.370	746.828	1799.987	555.375	4393.346	2501.943
1029	1.029	0.00002	660.143	875.891	1739.463	1031.848	4353.699	1333.897
1030	1.030	0.00011	1182.728	801.279	2272.374	1215.599	--undefined--	--undefined--
1031	1.031	0.00011	848.254	657.249	1786.661	526.204	4410.253	1475.366
1032	1.032	0.000008	851.338	703.735	2351.808	815.667	3813.252	931.861
1033	1.033	0.000009	994.176	367.845	1850.827	352.364	3872.801	941.363
1034	1.034	0.000009	632.734	793.229	1624.897	603.399	5008.827	1600.199
1035	1.035	0.00008	873.660	787.955	4137.649	637.317	--undefined--	--undefined--
1036	1.036	0.00008	1028.222	568.281	1888.369	677.390	4724.640	1242.450
1037	1.037	0.00003	1624.585	526.476	4316.881	1831.520	--undefined--	--undefined--
1038	1.038	0.00001	859.252	848.875	1915.339	1085.271	--undefined--	--undefined--
1039	1.039	0.00001	1209.715	606.578	2195.893	692.282	--undefined--	--undefined--
1040	1.040	0.00001	1283.337	488.764	2114.593	2183.770	4149.952	885.478
1041	1.041	0.00005	658.641	606.941	1726.503	494.192	4988.657	1242.854
1042	1.042	0.00005	1160.707	850.644	2086.284	735.917	--undefined--	--undefined--
1043	1.043	0.000008	754.494	956.161	1553.670	878.717	5347.604	1893.832
1044	1.044	0.00001	863.179	1159.149	1666.421	1218.447	2599.711	1962.487
1045	1.045	0.00001	636.710	928.657	1601.974	686.760	--undefined--	--undefined--
1046	1.046	0.00004	910.177	829.340	1588.088	1173.454	--undefined--	--undefined--
1047	1.047	0.00004	952.926	492.372	1877.478	462.041	4306.562	1037.860
1048	1.048	0.000006	543.008	1470.661	1381.054	920.627	3796.125	686.579
1049	1.049	0.000005	1288.244	703.573	2962.768	1979.920	--undefined--	--undefined--
1050	1.050	0.000005	1244.841	461.282	2199.577	778.155	--undefined--	--undefined--
1051	1.051	0.00004	1116.571	774.864	2181.043	1132.142	--undefined--	--undefined--
1052	1.052	0.00004	659.139	884.587	1670.568	685.804	4631.787	1999.597
1053	1.053	0.00002	2006.088	1287.323	--undefined--	--undefined--	--undefined--	--undefined--
1054	1.054	0.000009	626.478	1000.357	1549.993	827.473	4936.229	1006.004
1055	1.055	0.000009	608.589	620.497	1634.994	484.414	--undefined--	--undefined--
1056	1.056	0.00001	611.508	505.153	1655.239	396.015	5174.850	963.614
1057	1.057	0.00003	833.096	1547.901	1345.925	1052.998	4884.944	659.599
1058	1.058	0.00003	904.598	605.497	1780.518	549.077	4267.427	1091.459
1059	1.059	0.000008	645.067	749.999	1653.283	625.724	3101.116	3007.971
1060	1.060	0.000007	1167.007	374.379	3144.189	1020.485	--undefined--	--undefined--
1061	1.061	0.000005	1191.358	363.209	2072.546	479.635	--undefined--	--undefined--
1062	1.062	0.000006	1161.191	404.221	2081.027	541.392	4434.317	731.923
1063	1.063	0.00002	633.655	965.954	1761.002	845.301	--undefined--	--undefined--
1064	1.064	0.00002	644.200	1143.086	1771.426	1255.316	3679.797	1667.892
1065	1.065	0.000006	593.692	850.434	1640.945	691.984	4812.595	1313.995
1066	1.066	0.000005	570.623	771.809	1607.437	600.066	--undefined--	--undefined--
1067	1.067	0.00001	624.849	763.614	1656.443	564.312	--undefined--	--undefined--
1068	1.068	0.00002	847.378	1137.416	1913.157	1219.411	--undefined--	--undefined--
1069	1.069	0.00002	1029.691	486.567	1908.608	506.561	--undefined--	--undefined--
1070	1.070	0.00001	415.777	708.368	2124.757	931.374	4018.506	3183.027
1071	1.071	0.000005	1017.575	588.764	1740.379	743.028	--undefined--	--undefined--
1072	1.072	0.000006	1039.289	481.789	1823.765	504.229	4938.406	533.852
1073	1.073	0.000007	1192.975	443.053	2572.512	861.549	--undefined--	--undefined--
1074	1.074	0.00001	631.725	1171.820	1290.690	2003.253	4885.734	828.930
1075	1.075	0.00001	1166.061	726.895	2167.375	757.080	--undefined--	--undefined--
1076	1.076	0.00001	1097.735	582.614	2050.206	704.754	4619.591	3518.416
1077	1.077	0.000005	1218.032	821.675	5090.224	2500.850	--undefined--	--undefined--
1078	1.078	0.000004	978.888	920.924	1841.768	626.189	--undefined--	--undefined--
1079	1.079	0.00002	1200.202	761.823	3288.503	886.067	--undefined--	--undefined--
1080	1.080	0.00003	724.630	935.208	1771.592	663.302	--undefined--	--undefined--
1081	1.081	0.00003	1223.292	521.865	2138.425	419.905	--undefined--	--undefined--
1082	1.082	0.000004	550.336	693.067	1590.057	621.944	2865.872	964.162
1083	1.083	0.000004	686.202	1448.339	1675.326	1194.696	--undefined--	--undefined--
1084	1.084	0.000004	1232.263	585.904	2236.602	888.534	--undefined--	--undefined--
1085	1.085	0.00002	580.203	2869.693	1460.011	697.425	4668.900	1043.478
1086	1.086	0.00002	1085.268	702.215	1917.339	860.440	4029.056	2608.905
1087	1.087	0.00001	1390.130	1047.100	2166.048	988.429	--undefined--	--undefined--
1088	1.088	0.000004	1364.465	318.314	2164.230	387.952	--undefined--	--undefined--
1089	1.089	0.000004	1028.413	591.571	1796.252	499.028	4921.512	1017.400
1090	1.090	0.000004	1174.629	765.518	2016.129	1041.914	--undefined--	--undefined--
1091	1.091	0.00001	1296.277	2587.647	1320.017	1383.760	3894.610	1994.626
1092	1.092	0.00001	807.061	649.523	1785.150	496.713	5019.422	1473.687
1093	1.093	0.00001	1153.678	763.500	1672.984	1872.984	4429.241	1944.063
1094	1.094	0.000003	1072.911	882.425	2014.785	746.158	--undefined--	--undefined--
1095	1.095	0.000003	654.866	886.485	1700.984	642.513	4576.234	1733.215
1096	1.096	0.00001	1320.109	597.501	1645.112	2914.278	4085.829	1261.847
1097	1.097	0.00001	712.129	1066.655	1733.722	834.066	5085.969	2575.585
1098	1.098	0.000008	1399.515	1700.532	2543.291	1581.728	--undefined--	--undefined--
1099	1.099	0.000002	983.253	453.259	3974.659	971.855	--undefined--	--undefined--
1100	1.100	0.000003	615.631	668.810	1755.217	509.779	--undefined--	--undefined--
1101	1.101	0.000003	608.108	575.753	1505.061	435.638	4855.853	1893.036
1102	1.102	0.000003	1564.726	1037.574	4010.570	2228.465	--undefined--	--undefined--
1103	1.103	0.000003	1188.951	920.501	2268.916	2173.935	--undefined--	--undefined--
1104	1.104	0.000003	969.251	1012.105	3711.460	1253.919	--undefined--	--undefined--
1105	1.105	0.000001	883.080	994.527	3178.946	1131.731	--undefined--	--undefined--
1106	1.106	0.000001	491.656	876.554	1607.956	1169.345	5235.575	1053.346
1107	1.107	0.000001	1224.437	662.823	3107.190	1597.766	--undefined--	--undefined--
1108	1.108	0.000002	1270.207	633.653	4062.646	952.340	--undefined--	--undefined--
1109	1.109	0.000002	1214.346	910.095	2839.009	1372.205	--undefined--	--undefined--
1110	1.110	0.000001	1019.186	864.935	4698.273	1134.145	--undefined--	--undefined--
1111	1.111	0.000001	1865.063	1134.720	3758.669	2475.099	--undefined--	--undefined--
1112	1.112	0.000003	829.805	1337.157	1834.589	986.779	3965.577	1868.945
1113	1.113	0.000004	1178.699	624.901	2080.602	845.673	3753.500	1439.877
1114	1.114	0.000004	1315.029	560.052	2150.408	930.900	3906.111	1663.003
1115	1.115	0.000002	354.395	780.784	3657.350	1406.479	--undefined--	--undefined--
1116	1.116	0.000001	1306.619	966.541	3163.475	2172.628	--undefined--	--undefined--
1117	1.117	0.0000007	956.971	594.091	3534.063	998.731	--undefined--	--undefined--
1118	1.118	0.0000007	1388.638	1549.342	4875.404	1508.748	--undefined--	--undefined--
1119	1.119	0.0000005	539.250	969.468	3253.311	1022.746	3957.790	911.909
1120	1.120	0.000002	1180.235	625.922	2383.528	930.955	4983.371	602.509
1121	1.121	0.000002	1464.242	574.078	3621.866	988.466	--undefined--	--undefined--
1122	1.122	0.000001	587.026	1172.775	1960.098	774.986	5096.909	674.867
1123	1.123	0.0000009	591.030	1100.204	1721.436	824.366	4445.361	1742.628
1124	1.124	0.0000008	239.147	2590.545	1862.415	560.851	5063.986	1181.387
1125	1.125	0.0000008	1198.954	498.794	2198.563	705.854	5090.239	847.961
1126	1.126	0.000001	1190.622	760.651	3428.587	730.395	--undefined--	--undefined--
1127	1.127	0.000001	1562.218	3247.354	3587.376	881.595	--undefined--	--undefined--
1128	1.128	0.0000005	2579.454	1173.225	5330.696	2100.972	--undefined--	--undefined--
1129	1.129	0.0000004	463.093	437.110	3159.009	802.625	3791.765	2579.975
1130	1.130	0.0000010	1466.081	1748.047	3546.351	1628.712	--undefined--	--undefined--
1131	1.131	0.000001	861.614	1316.475	1899.614	1102.321	3859.435	514.718
1132	1.132	0.000001	1180.411	925.043	2053.763	1344.615	4124.341	807.272
1133	1.133	0.000001	176.996	1716.806	1428.279	907.801	3995.292	614.246
1134	1.134	0.000001	424.943	1248.772	2130.303	2186.338	--undefined--	--undefined--
1135	1.135	0.0000009	1647.569	706.717	3974.976	1774.740	--undefined--	--undefined--
