frame	time(s)	intensity	F1(Hz)	B1(Hz)	F2(Hz)	B2(Hz)	F3(Hz)	B3(Hz)
1	0.001	0.000003	1065.040	1317.832	2551.639	636.830	5375.223	1134.167
2	0.002	0.000003	1507.956	595.853	2691.370	807.502	--undefined--	--undefined--
3	0.003	0.000002	1134.495	574.890	2944.638	345.236	5200.515	1092.838
4	0.004	0.000002	1446.399	629.666	4659.784	1252.178	--undefined--	--undefined--
5	0.005	0.000003	1085.579	1383.243	2812.996	574.232	--undefined--	--undefined--
6	0.006	0.000003	1311.321	1324.992	1503.917	2141.130	4020.028	1649.711
7	0.007	0.000004	2314.030	642.180	5264.465	1226.863	--undefined--	--undefined--
8	0.008	0.00003	1426.774	748.648	2579.979	721.079	--undefined--	--undefined--
9	0.009	0.00003	1347.494	489.414	2326.387	620.097	--undefined--	--undefined--
10	0.010	0.00003	1393.128	413.726	2334.250	576.468	3966.337	5677.262
11	0.011	0.000006	1277.795	695.636	1277.873	4122.655	3893.669	2226.122
12	0.012	0.00005	357.963	813.195	2355.053	2008.583	--undefined--	--undefined--
13	0.013	0.00012	1209.445	488.658	2109.956	501.420	--undefined--	--undefined--
14	0.014	0.00012	1308.961	510.996	2200.530	417.282	--undefined--	--undefined--
15	0.015	0.00004	1364.462	1134.857	2059.377	3208.480	--undefined--	--undefined--
16	0.016	0.00025	826.966	1424.013	1794.047	1264.062	4702.441	3461.557
17	0.017	0.00025	960.185	677.791	3122.410	1114.337	--undefined--	--undefined--
18	0.018	0.00018	1649.820	1247.832	2181.264	1199.314	--undefined--	--undefined--
19	0.019	0.00534	1348.376	1295.034	2483.139	1412.320	--undefined--	--undefined--
20	0.020	0.00534	1085.727	1404.658	1951.226	1172.602	2897.470	1302.638
21	0.021	0.00176	1382.970	426.665	2315.011	492.065	--undefined--	--undefined--
22	0.022	0.00670	1794.138	1178.094	2745.877	1416.390	--undefined--	--undefined--
23	0.023	0.00670	1325.020	841.355	2375.843	830.769	--undefined--	--undefined--
24	0.024	0.00268	1278.566	557.489	2168.135	610.007	3545.122	3495.566
25	0.025	0.01206	1340.731	4238.093	2008.276	891.970	3612.238	2073.290
26	0.026	0.01206	1083.593	855.546	2085.928	855.470	--undefined--	--undefined--
27	0.027	0.00447	1551.336	694.184	2660.367	1074.342	--undefined--	--undefined--
28	0.028	0.01290	2044.739	620.027	3354.926	1769.116	--undefined--	--undefined--
29	0.029	0.01290	1199.096	743.430	2237.697	782.368	--undefined--	--undefined--
30	0.030	0.00769	1532.546	493.320	2541.267	668.077	--undefined--	--undefined--
31	0.031	0.01252	2158.566	559.931	3357.608	1303.757	--undefined--	--undefined--
32	0.032	0.01252	1153.798	712.952	2179.543	831.592	--undefined--	--undefined--
33	0.033	0.00782	1753.575	587.202	2875.086	754.540	--undefined--	--undefined--
34	0.034	0.01908	2452.871	990.776	3356.610	2549.115	--undefined--	--undefined--
35	0.035	0.01908	1080.715	802.505	2114.018	1051.425	3687.086	2218.655
36	0.036	0.00488	1198.405	839.437	2348.186	801.414	3375.827	610.275
37	0.037	0.02053	584.498	1621.776	2420.584	988.161	3646.216	1266.555
38	0.038	0.02053	1228.385	988.183	2534.361	1143.373	--undefined--	--undefined--
39	0.039	0.00459	1121.193	617.907	2247.477	743.084	3325.214	546.410
40	0.040	0.02126	485.314	2957.397	2367.660	1831.405	3313.062	2182.882
41	0.041	0.02126	1224.232	1003.521	2507.796	1338.592	--undefined--	--undefined--
42	0.042	0.01607	1317.017	852.002	2870.369	1289.260	--undefined--	--undefined--
43	0.043	0.01820	932.662	1291.130	2298.632	1393.445	3524.715	1224.189
44	0.044	0.01820	1177.990	771.747	2011.078	1609.550	3973.501	2088.352
45	0.045	0.02713	1335.794	759.633	3520.933	3866.468	--undefined--	--undefined--
46	0.046	0.02713	1052.149	604.954	2122.835	916.620	3436.340	698.156
47	0.047	0.01267	1312.448	711.651	1671.122	1586.541	4024.744	845.663
48	0.048	0.03245	1227.329	812.369	2681.989	999.332	--undefined--	--undefined--
49	0.049	0.03245	1310.740	618.194	3251.488	903.283	--undefined--	--undefined--
50	0.050	0.01373	1203.660	753.063	2462.228	1164.245	3788.463	1061.259
51	0.051	0.03803	1155.236	891.494	2708.257	793.416	--undefined--	--undefined--
52	0.052	0.03803	980.308	900.933	1807.000	1126.299	3397.275	618.116
53	0.053	0.02032	1206.572	1397.647	2917.980	833.298	4300.398	2225.600
54	0.054	0.03767	1020.497	507.300	3261.575	798.257	--undefined--	--undefined--
55	0.055	0.03767	1285.906	777.533	2621.433	1171.573	--undefined--	--undefined--
56	0.056	0.01340	1435.179	1406.568	3012.647	920.718	3763.450	4128.367
57	0.057	0.04618	830.614	863.360	1986.599	950.297	3414.419	643.299
58	0.058	0.04618	1348.787	807.576	2914.520	829.523	--undefined--	--undefined--
59	0.059	0.04317	842.057	903.733	1751.253	1248.713	3262.700	302.066
60	0.060	0.04317	998.779	451.451	1909.046	553.629	3270.222	478.031
61	0.061	0.01643	1281.993	786.367	2346.339	1505.617	3533.772	853.851
62	0.062	0.04663	1235.727	1023.851	3370.141	928.690	--undefined--	--undefined--
63	0.063	0.04663	945.223	893.844	1785.630	866.321	3397.001	929.289
64	0.064	0.01479	2022.657	586.326	3003.583	842.638	4015.781	1794.421
65	0.065	0.03890	952.395	833.588	1840.737	974.747	3760.208	799.238
66	0.066	0.03890	1243.255	982.508	2361.560	1562.351	--undefined--	--undefined--
67	0.067	0.04080	626.642	784.142	2399.327	1092.969	3462.123	539.708
68	0.068	0.04080	926.459	621.674	1848.418	660.159	3446.786	659.223
69	0.069	0.02229	1062.948	519.580	1977.120	591.974	3176.494	556.655
70	0.070	0.02844	1094.418	600.197	2881.161	1520.156	--undefined--	--undefined--
71	0.071	0.02844	818.411	723.141	1771.800	634.798	3309.181	704.804
72	0.072	0.01497	1208.433	439.089	3244.545	5546.380	3377.501	761.231
73	0.073	0.02440	903.630	701.161	1888.005	864.513	3509.029	834.806
74	0.074	0.02440	833.841	491.617	1672.940	418.646	3464.213	540.159
75	0.075	0.01944	1047.520	733.464	2181.948	1140.911	3468.560	621.872
76	0.076	0.01944	807.101	593.830	1718.597	547.908	3435.876	588.004
77	0.077	0.01322	1184.939	782.475	2546.877	1321.999	--undefined--	--undefined--
78	0.078	0.01273	609.364	634.196	1565.277	610.987	3380.743	484.367
79	0.079	0.01273	782.300	771.636	1746.972	705.828	3422.398	921.558
80	0.080	0.00638	708.668	898.644	1797.627	793.206	3300.762	773.987
81	0.081	0.00849	844.260	887.245	1765.487	936.321	3271.026	1211.830
82	0.082	0.00849	913.095	615.073	1740.984	695.572	3441.785	1916.084
83	0.083	0.00434	880.836	2382.970	3244.661	701.187	--undefined--	--undefined--
84	0.084	0.00434	815.599	488.737	1662.280	457.509	3550.645	562.364
85	0.085	0.00226	869.627	564.371	1809.561	1081.505	3143.408	507.754
86	0.086	0.00116	1009.443	571.231	2047.763	528.410	3616.440	1582.728
87	0.087	0.00116	687.112	630.228	1685.847	508.971	3621.173	917.847
88	0.088	0.00040	585.187	979.044	1612.688	856.732	3542.655	1933.516
89	0.089	0.00040	544.905	1435.781	1151.993	1435.272	3364.973	426.781
90	0.090	0.00010	838.114	1140.998	1831.857	804.449	--undefined--	--undefined--
91	0.091	0.00011	1081.295	485.634	2896.757	747.450	--undefined--	--undefined--
92	0.092	0.00058	688.566	916.878	1724.346	912.362	3330.489	644.720
93	0.093	0.00058	1138.264	1085.567	1890.183	821.548	3370.591	535.419
94	0.094	0.00060	1303.502	637.401	2333.980	817.989	--undefined--	--undefined--
95	0.095	0.00060	831.254	670.484	1689.621	739.004	2996.326	1443.717
96	0.096	0.00028	1065.140	983.705	2132.842	1373.888	--undefined--	--undefined--
97	0.097	0.00058	1418.202	632.658	3123.656	568.287	--undefined--	--undefined--
98	0.098	0.00058	547.385	1519.782	1926.216	1075.878	--undefined--	--undefined--
99	0.099	0.00043	1018.964	654.068	2001.670	1146.761	3330.288	1490.040
100	0.100	0.00043	531.843	620.115	1596.921	651.240	2991.402	637.783
101	0.101	0.00023	455.060	640.332	1738.087	1151.045	3405.717	749.713
102	0.102	0.00035	247.882	768.975	2130.697	507.999	3177.102	445.598
103	0.103	0.00035	971.976	583.456	3005.040	711.635	--undefined--	--undefined--
104	0.104	0.00026	1176.077	749.051	3163.651	2978.204	--undefined--	--undefined--
105	0.105	0.00046	508.520	828.608	1553.299	935.648	3041.464	671.264
106	0.106	0.00046	969.516	1122.687	3781.166	805.416	--undefined--	--undefined--
107	0.107	0.00057	837.836	1163.868	1856.597	874.101	2962.216	833.235
108	0.108	0.00057	690.911	1057.604	1659.081	1376.328	3291.693	897.523
109	0.109	0.00033	973.012	578.360	2589.821	3103.587	--undefined--	--undefined--
110	0.110	0.00049	1549.842	460.686	3444.869	1279.798	--undefined--	--undefined--
111	0.111	0.00049	1212.551	1679.500	2606.698	1217.135	--undefined--	--undefined--
112	0.112	0.00034	1062.968	710.479	2032.724	658.542	--undefined--	--undefined--
113	0.113	0.00055	537.188	985.318	1605.790	986.827	2928.344	1213.424
114	0.114	0.00055	1020.973	1073.606	2399.486	1202.122	--undefined--	--undefined--
115	0.115	0.00052	811.412	1082.897	1718.702	866.143	2844.107	1067.988
116	0.116	0.00052	561.422	603.409	1546.375	478.916	3965.511	1550.082
117	0.117	0.00039	1109.840	849.703	3935.481	2590.948	--undefined--	--undefined--
118	0.118	0.00062	287.963	1888.624	1536.583	428.388	3425.987	703.646
119	0.119	0.00062	1090.365	1635.968	1828.552	1612.382	3395.148	2590.513
120	0.120	0.00043	620.286	859.481	1587.609	698.344	5085.784	3275.701
121	0.121	0.00059	1071.874	726.692	2183.135	823.514	--undefined--	--undefined--
122	0.122	0.00059	522.111	744.930	1732.558	769.502	3514.127	677.196
123	0.123	0.00064	1300.474	657.252	2481.719	983.182	--undefined--	--undefined--
124	0.124	0.00064	497.948	824.489	1476.845	726.099	3569.455	1224.536
125	0.125	0.00040	415.696	636.706	1259.215	533.076	3450.404	894.890
126	0.126	0.00066	1330.775	1015.136	1917.202	1075.123	3311.640	642.123
127	0.127	0.00066	1849.743	1081.675	3254.205	1253.575	--undefined--	--undefined--
128	0.128	0.00039	459.213	724.397	1368.131	795.931	3412.936	628.926
129	0.129	0.00064	536.008	702.720	1505.949	593.699	3221.373	549.991
130	0.130	0.00064	936.288	829.963	1669.925	1081.238	3738.350	463.869
131	0.131	0.00067	621.023	828.509	1589.512	776.239	3351.080	440.842
132	0.132	0.00067	492.185	629.992	1524.488	664.069	2805.245	661.312
133	0.133	0.00056	589.093	1007.628	1680.438	1427.676	3437.962	865.192
134	0.134	0.00074	1379.558	516.249	2366.705	631.585	3441.127	564.987
135	0.135	0.00074	443.758	551.238	1424.544	555.854	3535.025	436.747
136	0.136	0.00047	945.918	801.616	3319.856	429.343	--undefined--	--undefined--
137	0.137	0.00068	1029.276	962.556	2110.645	1181.214	3450.512	560.063
138	0.138	0.00068	428.712	346.303	2295.398	1118.293	3609.551	775.468
139	0.139	0.00043	965.971	568.270	3269.877	763.298	--undefined--	--undefined--
140	0.140	0.00071	544.379	735.788	1602.627	885.631	3214.562	487.575
141	0.141	0.00071	902.453	540.549	1931.078	2090.724	3555.459	587.073
142	0.142	0.00067	582.239	777.087	1746.478	921.180	3168.033	477.014
143	0.143	0.00067	455.704	567.639	1406.570	587.193	2478.156	562.181
144	0.144	0.00065	656.945	958.828	1891.843	1502.817	3310.110	866.097
145	0.145	0.00068	1079.050	1275.658	2188.888	803.419	3320.639	666.597
146	0.146	0.00068	862.680	1226.336	2181.593	1194.452	--undefined--	--undefined--
147	0.147	0.00058	668.230	922.166	3275.785	477.268	--undefined--	--undefined--
148	0.148	0.00082	1343.667	1157.210	2278.440	952.044	3503.506	590.081
149	0.149	0.00082	440.374	492.502	2621.170	1210.266	--undefined--	--undefined--
150	0.150	0.00059	463.970	820.992	1325.636	1425.717	3128.688	493.712
151	0.151	0.00093	1251.223	791.613	3658.959	535.969	--undefined--	--undefined--
152	0.152	0.00099	649.947	863.005	3371.062	845.958	--undefined--	--undefined--
153	0.153	0.00099	525.197	1317.309	1180.782	1162.875	3610.668	1303.485
154	0.154	0.00124	1061.697	908.876	3664.040	502.413	--undefined--	--undefined--
155	0.155	0.00124	741.623	908.453	1897.582	1740.887	3718.670	622.219
156	0.156	0.00243	943.129	622.831	2000.226	833.043	3568.711	860.687
157	0.157	0.00243	658.108	989.492	2192.299	1223.181	3643.311	614.960
158	0.158	0.00455	561.590	1439.894	1295.749	2015.153	3704.343	734.308
159	0.159	0.00455	528.447	2076.150	1385.579	1098.647	3743.576	528.704
160	0.160	0.00326	531.273	1500.142	2420.081	1395.051	3832.259	588.556
161	0.161	0.01084	830.071	614.083	3811.935	428.476	--undefined--	--undefined--
162	0.162	0.01084	1187.013	605.859	2344.481	1514.188	3787.264	578.438
163	0.163	0.00584	1525.865	376.883	2580.658	6422.993	3994.900	459.206
164	0.164	0.01099	884.587	759.513	3829.428	417.577	--undefined--	--undefined--
165	0.165	0.01099	1205.344	496.544	2575.770	1400.801	3767.602	554.446
166	0.166	0.00672	1197.612	643.875	2156.325	1876.035	3873.512	582.889
167	0.167	0.01779	1004.807	658.685	2170.150	1082.698	3741.027	612.303
168	0.168	0.01779	1151.690	962.170	1818.232	2609.261	3678.926	551.387
169	0.169	0.00597	767.641	1007.915	1915.695	1185.267	3681.190	701.743
170	0.170	0.02245	833.225	900.755	1986.344	898.153	3556.138	625.027
171	0.171	0.02245	1045.020	970.142	2099.637	895.895	3610.152	787.418
172	0.172	0.03210	425.151	1316.507	1601.445	1154.947	3769.669	541.343
173	0.173	0.03210	1026.067	939.118	1809.158	1028.108	3734.408	500.627
174	0.174	0.01390	1405.541	436.609	2331.590	599.428	3663.320	1440.057
175	0.175	0.03770	1882.318	610.420	3756.175	348.722	--undefined--	--undefined--
176	0.176	0.03770	1244.773	691.630	1963.968	1322.044	3801.082	486.213
177	0.177	0.01438	1195.575	941.176	2145.662	1089.298	3332.766	2257.271
178	0.178	0.03781	698.895	791.484	1703.879	743.430	3550.835	393.873
179	0.179	0.03781	1266.625	562.037	2427.179	986.954	3754.815	564.050
180	0.180	0.01168	1097.313	702.435	1983.831	1090.949	3640.567	656.835
181	0.181	0.02737	1018.740	477.806	1867.584	2351.061	3494.889	428.609
182	0.182	0.02737	1087.861	959.340	2566.537	1091.946	3735.178	628.285
183	0.183	0.00570	1192.491	1310.456	3612.262	478.351	--undefined--	--undefined--
184	0.184	0.02163	870.398	786.709	2281.735	1002.421	3553.459	616.693
185	0.185	0.02163	806.846	1115.977	2777.084	2016.186	3611.976	699.499
186	0.186	0.01034	2390.092	892.419	3627.027	510.404	--undefined--	--undefined--
187	0.187	0.03778	901.511	1009.390	2293.203	992.972	3616.624	627.583
188	0.188	0.03778	2143.704	1715.408	3296.960	472.027	--undefined--	--undefined--
189	0.189	0.04473	458.284	1019.048	2264.413	830.937	3464.413	541.666
190	0.190	0.04473	1145.363	877.873	2375.859	1255.352	3714.735	641.310
191	0.191	0.01870	812.653	2605.997	1921.926	1374.162	3308.509	720.687
192	0.192	0.05811	613.052	786.068	2000.862	710.799	3282.600	434.219
193	0.193	0.05811	1307.745	520.786	2625.526	2122.704	3752.811	579.680
194	0.194	0.01389	1179.526	903.541	2373.689	932.960	3536.996	705.429
195	0.195	0.05760	560.603	978.364	2102.472	694.883	3456.630	457.942
196	0.196	0.05760	1382.007	596.650	2389.032	2130.897	3773.213	553.388
197	0.197	0.02487	1279.145	650.634	2404.758	730.819	3590.510	635.756
198	0.198	0.08298	1953.742	544.808	3644.225	377.681	--undefined--	--undefined--
199	0.199	0.08298	1410.759	547.301	2519.793	994.882	3760.136	571.824
200	0.200	0.01787	1284.266	962.718	2337.889	746.423	3537.390	624.285
201	0.201	0.07109	1342.916	871.132	1939.118	1737.686	3663.808	410.497
202	0.202	0.07109	1515.064	571.349	2559.369	731.480	3680.240	566.196
203	0.203	0.01929	1508.987	875.964	2356.765	736.451	3516.678	555.533
204	0.204	0.07457	1167.889	678.678	2273.939	1407.522	3605.887	501.240
205	0.205	0.07457	1604.220	394.147	2595.331	520.746	3619.538	460.982
206	0.206	0.02183	1032.606	1247.964	2212.131	710.425	3460.367	542.738
207	0.207	0.07088	1007.077	873.912	2408.219	1065.325	3585.058	579.039
208	0.208	0.07088	1344.369	799.273	2445.880	643.833	3485.377	449.822
209	0.209	0.01575	741.215	1113.440	2146.984	828.237	3484.853	482.069
210	0.210	0.06602	1003.146	1027.448	2433.298	854.342	3599.136	565.730
211	0.211	0.06602	1026.986	901.716	2364.757	722.143	3453.866	393.127
212	0.212	0.05469	509.531	1099.289	2090.786	1206.294	3514.609	340.386
213	0.213	0.05469	1114.208	1027.450	2475.829	798.091	3621.803	545.898
214	0.214	0.02019	916.095	849.218	2353.241	1168.455	3484.075	364.962
215	0.215	0.04948	394.699	675.137	2595.852	1139.311	3598.943	346.527
216	0.216	0.04948	1270.670	903.843	2680.227	833.831	3742.372	563.513
217	0.217	0.02041	951.962	806.084	2507.826	1913.345	3481.171	383.425
218	0.218	0.04509	343.428	923.959	2569.122	704.393	3587.433	434.544
219	0.219	0.04509	1375.196	672.198	2964.788	809.915	3872.638	637.384
220	0.220	0.01705	1099.086	1119.861	2628.561	1297.016	3551.821	605.292
221	0.221	0.05967	520.603	1193.032	2476.297	1073.121	3442.643	782.422
222	0.222	0.05967	1414.435	591.436	3219.312	474.335	4059.394	604.493
223	0.223	0.01317	1619.454	1516.192	2613.050	912.941	3641.779	637.017
224	0.224	0.05661	673.469	1302.504	2632.046	987.644	3318.539	1187.431
225	0.225	0.05661	1722.295	969.713	3148.887	785.743	3972.394	747.602
226	0.226	0.01267	1796.047	1271.833	2644.981	897.630	3690.535	674.343
227	0.227	0.05699	767.293	1201.019	2745.242	580.568	3324.940	1479.696
228	0.228	0.05699	1748.223	1197.333	2817.942	990.152	3811.320	676.815
229	0.229	0.01824	1314.648	1165.781	2551.178	784.199	3664.025	611.135
230	0.230	0.04788	986.077	1345.872	2726.896	618.845	3458.829	1864.445
231	0.231	0.04788	1522.930	936.372	2689.989	736.764	3739.967	556.539
232	0.232	0.01977	1007.396	1188.973	2450.954	875.639	3661.029	568.692
233	0.233	0.03626	1097.153	1557.312	2615.671	1038.302	3365.986	2341.521
234	0.234	0.03626	1381.986	659.513	2561.221	659.141	3653.002	490.240
235	0.235	0.00985	728.214	1473.280	2250.943	1115.520	3716.723	567.879
236	0.236	0.02862	949.344	1320.574	2346.627	990.659	3593.179	1018.134
237	0.237	0.02862	1229.694	664.957	2402.360	704.114	3553.053	440.823
238	0.238	0.03473	1950.093	1228.134	3816.341	549.899	--undefined--	--undefined--
239	0.239	0.03473	897.700	1235.201	2280.383	947.808	3610.710	776.919
240	0.240	0.01916	1011.792	841.140	2160.240	746.747	3508.090	346.586
241	0.241	0.04061	2046.091	1010.629	3866.252	616.103	--undefined--	--undefined--
242	0.242	0.04061	857.267	1264.274	2238.304	923.923	3654.479	630.833
243	0.243	0.01347	594.898	1815.587	1892.846	778.472	3606.568	287.880
244	0.244	0.03248	324.103	1451.201	2225.352	979.950	3687.678	708.413
245	0.245	0.03248	420.918	2003.463	2038.287	904.807	3772.643	423.477
246	0.246	0.01354	2192.752	678.813	3605.340	428.818	--undefined--	--undefined--
247	0.247	0.02231	600.580	1024.144	2267.463	729.710	3507.675	624.589
248	0.248	0.02231	2028.401	549.692	3787.499	392.557	--undefined--	--undefined--
249	0.249	0.01065	852.683	2514.332	2329.319	862.581	3640.709	656.386
250	0.250	0.02569	359.396	1554.097	2456.921	830.722	3388.482	1400.823
251	0.251	0.02569	994.999	1839.127	2303.899	946.145	3710.485	665.468
252	0.252	0.00961	1337.025	1080.716	2512.955	912.419	3704.445	748.773
253	0.253	0.01476	1824.737	2815.597	2660.830	499.579	--undefined--	--undefined--
254	0.254	0.01476	1350.846	1038.599	2549.665	1074.533	3673.803	979.187
255	0.255	0.00657	1369.997	758.353	2581.736	854.724	3788.418	685.497
256	0.256	0.00979	967.382	1080.548	2547.833	782.979	3690.500	1384.904
257	0.257	0.00979	1375.805	846.536	2475.297	854.311	3530.242	679.029
258	0.258	0.00458	1027.396	1422.865	2173.661	1293.167	3847.468	622.743
259	0.259	0.00423	1172.112	840.060	2567.648	970.351	3848.009	1080.158
260	0.260	0.00423	2173.278	635.370	3393.368	421.246	--undefined--	--undefined--
261	0.261	0.00120	463.256	1391.291	1864.713	827.373	3964.796	525.699
262	0.262	0.00120	1092.289	788.247	2305.777	904.222	3722.579	908.040
263	0.263	0.00108	1339.151	1761.998	3560.863	726.661	--undefined--	--undefined--
264	0.264	0.00118	651.161	843.113	3284.834	705.662	--undefined--	--undefined--
265	0.265	0.00118	815.947	926.550	2332.782	709.131	--undefined--	--undefined--
266	0.266	0.00061	448.379	624.848	1543.637	945.388	3513.303	377.649
267	0.267	0.00085	921.497	824.003	3562.166	551.658	--undefined--	--undefined--
268	0.268	0.00085	705.103	706.133	1259.260	3601.922	3229.680	518.351
269	0.269	0.00049	875.081	863.557	3092.188	906.080	--undefined--	--undefined--
270	0.270	0.00063	639.518	846.323	3406.185	491.081	--undefined--	--undefined--
271	0.271	0.00063	1025.164	620.142	3492.952	600.785	--undefined--	--undefined--
272	0.272	0.00039	712.562	623.742	2924.623	742.449	--undefined--	--undefined--
273	0.273	0.00048	875.093	897.592	2747.181	975.096	--undefined--	--undefined--
274	0.274	0.00048	845.992	1409.889	1208.101	1351.511	4821.040	2030.666
275	0.275	0.00041	821.724	893.183	2788.052	1258.057	--undefined--	--undefined--
276	0.276	0.00048	487.907	527.863	2058.035	2616.313	3094.601	622.545
277	0.277	0.00048	909.266	850.775	3050.393	1068.745	--undefined--	--undefined--
278	0.278	0.00046	442.161	793.904	1471.370	1217.399	3788.111	2247.782
279	0.279	0.00072	472.137	475.593	1736.486	2002.841	3258.438	520.671
280	0.280	0.00072	818.565	608.586	2888.112	599.185	--undefined--	--undefined--
281	0.281	0.00042	423.997	641.714	1352.881	804.280	--undefined--	--undefined--
282	0.282	0.00065	851.859	723.875	3108.275	3630.907	--undefined--	--undefined--
283	0.283	0.00065	897.342	496.948	2978.678	1295.611	--undefined--	--undefined--
284	0.284	0.00040	840.557	505.309	3927.445	1816.373	--undefined--	--undefined--
285	0.285	0.00060	803.436	974.940	2100.537	3414.611	--undefined--	--undefined--
286	0.286	0.00060	996.969	449.331	3177.224	1250.683	--undefined--	--undefined--
287	0.287	0.00035	926.794	679.306	4457.427	1351.333	--undefined--	--undefined--
288	0.288	0.00063	218.308	1051.094	941.129	681.012	5281.081	1257.650
289	0.289	0.00063	987.718	453.807	3818.059	2756.065	--undefined--	--undefined--
290	0.290	0.00038	860.491	716.054	2684.198	2054.219	--undefined--	--undefined--
291	0.291	0.00060	840.550	437.374	4606.837	1732.034	--undefined--	--undefined--
292	0.292	0.00060	914.951	613.890	1584.211	2557.697	4992.938	1413.670
293	0.293	0.00041	885.408	645.637	4210.303	1210.082	--undefined--	--undefined--
294	0.294	0.00059	815.325	886.907	3686.675	1553.145	--undefined--	--undefined--
295	0.295	0.00059	864.297	707.887	1731.324	2517.418	--undefined--	--undefined--
296	0.296	0.00034	367.516	592.033	1127.387	486.083	4418.468	856.856
297	0.297	0.00063	790.284	426.558	2158.330	1107.014	--undefined--	--undefined--
298	0.298	0.00063	870.422	1080.986	1234.549	2195.677	4861.079	2073.549
299	0.299	0.00041	916.460	492.538	4284.423	1901.168	--undefined--	--undefined--
300	0.300	0.00070	353.492	1155.315	915.168	1093.631	4267.778	2657.636
301	0.301	0.00070	629.624	839.718	1676.085	1400.069	5361.466	1766.308
302	0.302	0.00039	962.055	746.488	1468.024	2899.875	--undefined--	--undefined--
303	0.303	0.00067	769.512	426.092	2348.936	1712.583	--undefined--	--undefined--
304	0.304	0.00067	568.246	850.441	1622.858	1337.433	--undefined--	--undefined--
305	0.305	0.00036	454.440	477.568	1343.726	450.350	4891.545	912.785
306	0.306	0.00068	791.781	427.776	2620.592	797.731	--undefined--	--undefined--
307	0.307	0.00068	883.519	802.718	2361.966	1734.309	--undefined--	--undefined--
308	0.308	0.00036	484.469	409.664	1383.939	378.069	3562.575	944.446
309	0.309	0.00071	416.822	616.265	1296.248	919.241	3548.107	1843.235
310	0.310	0.00071	880.929	513.890	2912.668	2354.558	--undefined--	--undefined--
311	0.311	0.00039	1076.876	568.534	3443.407	1749.754	--undefined--	--undefined--
312	0.312	0.00066	853.966	413.214	2104.717	598.048	--undefined--	--undefined--
313	0.313	0.00066	828.609	386.090	2914.844	1342.284	--undefined--	--undefined--
314	0.314	0.00049	1038.002	801.868	2415.295	2813.709	--undefined--	--undefined--
315	0.315	0.00066	802.828	1444.662	1990.388	2428.793	--undefined--	--undefined--
316	0.316	0.00066	838.759	550.874	3274.047	2146.456	--undefined--	--undefined--
317	0.317	0.00067	827.165	475.952	1683.846	804.897	3355.256	790.193
318	0.318	0.00067	890.003	998.474	2073.567	1181.405	--undefined--	--undefined--
319	0.319	0.00065	427.329	1247.709	1041.158	1710.963	4037.099	2222.298
320	0.320	0.00067	790.011	626.874	1845.828	1261.447	3395.712	757.792
321	0.321	0.00067	642.956	1265.503	1865.051	1382.156	--undefined--	--undefined--
322	0.322	0.00044	349.907	1038.786	1109.262	1036.364	3791.492	815.979
323	0.323	0.00073	888.348	972.403	3175.872	1427.945	--undefined--	--undefined--
324	0.324	0.00073	576.118	786.702	1629.054	1079.065	5184.614	2374.957
325	0.325	0.00043	298.592	898.259	1055.966	676.247	3522.686	775.818
326	0.326	0.00080	838.125	636.489	3110.536	990.087	--undefined--	--undefined--
327	0.327	0.00080	901.160	1583.940	967.483	1034.118	4827.453	1831.387
328	0.328	0.00050	868.455	470.157	3202.367	2101.026	--undefined--	--undefined--
329	0.329	0.00080	833.870	475.418	2822.483	1125.087	--undefined--	--undefined--
330	0.330	0.00080	949.721	489.322	2200.937	4723.442	3278.115	3825.487
331	0.331	0.00054	117.646	1344.025	988.041	859.107	2997.275	989.749
332	0.332	0.00086	809.011	588.005	2749.277	1191.210	--undefined--	--undefined--
333	0.333	0.00086	920.912	868.742	2365.970	1280.895	--undefined--	--undefined--
334	0.334	0.00052	386.290	878.391	1143.490	796.172	3387.075	813.807
335	0.335	0.00081	817.703	369.961	3009.914	928.604	--undefined--	--undefined--
336	0.336	0.00081	729.431	810.116	2684.294	791.315	--undefined--	--undefined--
337	0.337	0.00053	1032.453	666.980	1854.717	4138.182	--undefined--	--undefined--
338	0.338	0.00064	271.912	1417.614	1042.465	1125.132	4584.430	2196.522
339	0.339	0.00067	534.479	650.905	3720.824	848.824	--undefined--	--undefined--
340	0.340	0.00088	989.888	598.442	3198.974	1155.216	--undefined--	--undefined--
341	0.341	0.00250	553.906	517.168	2970.322	919.349	4317.258	1408.434
342	0.342	0.00250	477.328	700.575	2778.420	1052.437	--undefined--	--undefined--
343	0.343	0.00199	538.501	1596.701	2985.680	805.228	--undefined--	--undefined--
344	0.344	0.00299	1194.832	1172.235	2885.950	723.234	--undefined--	--undefined--
345	0.345	0.00299	486.611	597.388	2417.689	1926.216	4974.036	758.009
346	0.346	0.00184	505.622	501.310	3484.978	1056.027	--undefined--	--undefined--
347	0.347	0.00188	583.944	735.059	2816.483	519.130	4726.488	1239.486
348	0.348	0.00188	601.670	861.494	2856.168	1152.971	4101.816	876.484
349	0.349	0.00137	579.770	865.815	3631.409	633.497	--undefined--	--undefined--
350	0.350	0.00137	449.935	700.201	2986.527	948.410	4410.877	877.749
351	0.351	0.00138	870.482	663.285	3087.014	705.165	4297.701	610.256
352	0.352	0.00154	564.349	517.651	3153.734	994.389	4169.139	783.243
353	0.353	0.00154	478.353	694.597	2407.134	1404.805	4364.203	1043.814
354	0.354	0.00173	581.712	588.306	2642.775	2241.371	4190.042	695.336
355	0.355	0.00173	947.844	950.642	3249.859	1194.838	4654.288	913.337
356	0.356	0.00078	504.177	570.984	2875.680	1302.426	--undefined--	--undefined--
357	0.357	0.00191	704.407	992.476	4052.896	417.545	--undefined--	--undefined--
358	0.358	0.00191	543.089	1160.407	2760.413	2291.883	4574.566	857.522
359	0.359	0.00153	608.962	775.337	3173.404	811.733	4355.159	852.756
360	0.360	0.00238	523.764	398.456	3880.231	2754.235	4071.234	683.801
361	0.361	0.00238	478.463	478.800	2559.070	1155.840	5201.087	1291.268
362	0.362	0.00193	736.662	672.261	3512.645	1397.635	4275.943	1011.623
363	0.363	0.00193	769.468	926.185	3111.361	983.329	4432.700	854.913
364	0.364	0.00141	506.323	505.710	3672.880	1637.803	4654.965	1472.785
365	0.365	0.00171	946.946	773.838	4258.589	384.391	--undefined--	--undefined--
366	0.366	0.00187	547.020	1295.418	3172.535	2137.600	4858.558	887.708
367	0.367	0.00187	693.769	649.247	3983.644	4507.329	4373.476	780.062
368	0.368	0.00129	564.893	583.613	4265.435	897.598	--undefined--	--undefined--
369	0.369	0.00120	475.192	762.655	2527.249	2623.611	4585.835	659.067
370	0.370	0.00217	560.678	545.901	3318.575	988.516	4849.977	1169.366
371	0.371	0.00217	870.685	658.663	3330.473	932.438	4570.900	490.997
372	0.372	0.00162	546.124	592.644	2322.980	1293.553	4122.331	914.742
373	0.373	0.00112	924.338	1004.166	4923.213	620.665	--undefined--	--undefined--
374	0.374	0.00112	475.568	545.500	2941.041	872.393	4764.609	927.702
375	0.375	0.00086	774.003	648.892	2885.917	1134.530	4055.996	740.422
376	0.376	0.00128	809.037	1365.612	3394.373	1284.299	4717.616	1105.598
377	0.377	0.00128	516.263	447.895	2800.692	1441.500	4842.941	1148.706
378	0.378	0.00115	923.944	809.698	4050.530	1146.888	--undefined--	--undefined--
379	0.379	0.00115	471.512	1021.133	3042.160	1417.005	4669.724	1113.953
380	0.380	0.00190	818.600	413.405	3039.263	949.800	4454.219	811.656
381	0.381	0.00225	717.459	1074.878	3361.361	941.155	4474.488	723.687
382	0.382	0.00225	709.687	893.261	2984.558	382.249	--undefined--	--undefined--
383	0.383	0.00241	598.601	837.125	3895.349	456.478	--undefined--	--undefined--
384	0.384	0.00241	447.365	1036.501	3036.797	1287.245	4371.635	597.919
385	0.385	0.00352	781.671	661.380	3303.869	538.405	--undefined--	--undefined--
386	0.386	0.00352	876.968	2117.348	3436.265	1180.137	4691.841	1236.283
387	0.387	0.00328	505.368	566.146	2993.881	930.788	4305.997	1386.067
388	0.388	0.00542	590.050	1418.559	4102.870	390.853	--undefined--	--undefined--
389	0.389	0.00542	3207.315	1143.088	4621.575	1092.776	--undefined--	--undefined--
390	0.390	0.00855	649.490	802.688	3232.199	932.556	4297.439	1105.021
391	0.391	0.00855	3253.419	1798.082	4582.760	1536.309	--undefined--	--undefined--
392	0.392	0.00325	556.177	681.079	2597.866	902.201	4087.935	732.914
393	0.393	0.00536	406.788	1230.094	3683.560	2287.954	4499.397	1140.376
394	0.394	0.00536	333.902	1063.598	2957.750	612.684	4072.729	462.274
395	0.395	0.00465	568.778	625.824	3121.678	924.590	4244.129	733.693
396	0.396	0.00465	2668.192	1160.160	4694.436	883.450	--undefined--	--undefined--
397	0.397	0.00440	805.791	916.738	2853.574	1326.101	4337.458	483.990
398	0.398	0.00313	486.439	1401.121	3151.737	926.041	4524.286	948.406
399	0.399	0.00313	484.382	747.000	3021.401	831.261	4287.769	834.019
400	0.400	0.00203	553.551	547.809	2827.901	1071.458	5110.676	1135.372
401	0.401	0.00203	437.311	785.841	3028.369	686.580	4885.650	954.077
402	0.402	0.00246	699.986	719.731	3513.102	1250.421	4676.193	1460.543
403	0.403	0.00246	819.627	773.741	4246.507	979.141	5066.913	2238.911
404	0.404	0.00235	771.222	845.077	2673.207	5522.193	4213.756	632.171
405	0.405	0.00235	605.441	1251.924	3288.356	1241.686	4670.469	1188.023
406	0.406	0.00232	521.233	547.721	3075.311	754.210	--undefined--	--undefined--
407	0.407	0.00275	573.120	794.480	3522.341	553.887	--undefined--	--undefined--
408	0.408	0.00275	381.038	1004.615	3073.276	880.867	4892.344	1095.534
409	0.409	0.00159	767.795	994.100	3760.148	601.431	--undefined--	--undefined--
410	0.410	0.00159	437.750	1227.852	3367.654	1320.566	4547.247	963.388
411	0.411	0.00240	808.579	538.880	3445.046	651.412	--undefined--	--undefined--
412	0.412	0.00296	824.014	689.544	3974.350	519.902	4952.366	667.107
413	0.413	0.00296	771.684	791.201	2404.385	2292.335	4119.417	654.576
414	0.414	0.00337	766.992	1256.807	3517.675	1047.289	4555.434	1070.732
415	0.415	0.00337	590.038	669.119	3378.394	1219.310	--undefined--	--undefined--
416	0.416	0.00278	592.657	517.838	3651.091	809.363	4590.358	1102.936
417	0.417	0.00278	415.831	1181.043	3412.835	891.412	4604.815	3195.893
418	0.418	0.00269	593.842	625.957	4039.566	672.249	4278.326	3934.668
419	0.419	0.00269	3314.178	1047.568	4524.034	1446.494	--undefined--	--undefined--
420	0.420	0.00324	618.348	774.288	3924.145	447.103	--undefined--	--undefined--
421	0.421	0.00324	277.414	1884.474	4151.986	812.451	--undefined--	--undefined--
422	0.422	0.00347	683.201	434.647	3687.416	1956.894	4142.412	708.755
423	0.423	0.00347	693.319	767.616	3493.429	983.695	4410.717	620.218
424	0.424	0.00191	944.334	444.318	4084.756	734.975	4289.624	2491.334
425	0.425	0.00191	919.524	1048.485	3441.211	725.438	4657.274	775.846
426	0.426	0.00273	934.531	972.603	3315.113	1194.968	4336.099	790.267
427	0.427	0.00273	1026.858	1405.760	3488.471	1300.645	4815.256	1138.550
428	0.428	0.00246	543.661	1345.511	3284.200	846.671	4499.137	1021.851
429	0.429	0.00164	634.424	1704.401	3001.894	1755.981	4721.760	969.063
430	0.430	0.00164	3221.990	770.156	4732.118	1162.973	--undefined--	--undefined--
431	0.431	0.00160	537.314	929.544	2899.475	522.798	--undefined--	--undefined--
432	0.432	0.00139	2501.155	5148.018	3027.796	660.507	--undefined--	--undefined--
433	0.433	0.00212	500.545	703.509	2836.698	440.738	5044.358	851.543
434	0.434	0.00212	2850.841	641.551	3907.033	693.516	--undefined--	--undefined--
435	0.435	0.00229	382.081	1336.403	3062.627	757.750	--undefined--	--undefined--
436	0.436	0.00229	345.590	955.997	2682.936	417.001	3643.812	399.276
437	0.437	0.00324	549.423	849.669	2774.802	906.255	3858.991	772.681
438	0.438	0.00324	2482.438	1900.947	3175.518	999.713	--undefined--	--undefined--
439	0.439	0.00379	521.021	1151.988	3140.379	781.800	--undefined--	--undefined--
440	0.440	0.00379	397.591	1444.350	2678.246	661.535	3820.935	577.254
441	0.441	0.00314	564.376	828.332	3155.852	673.584	4112.872	2562.056
442	0.442	0.00314	2997.027	1480.686	4128.524	5606.542	--undefined--	--undefined--
443	0.443	0.00385	576.304	506.607	3002.367	627.748	3990.803	587.244
444	0.444	0.00385	3216.258	1318.121	4639.396	1635.802	--undefined--	--undefined--
445	0.445	0.00409	582.610	546.302	3155.702	802.195	4109.926	747.067
446	0.446	0.00409	511.828	1324.156	3282.446	1239.192	4437.739	1026.107
447	0.447	0.00499	600.557	755.407	3555.302	554.676	--undefined--	--undefined--
448	0.448	0.00499	557.700	1126.101	3526.016	1248.125	4549.777	1223.040
449	0.449	0.00554	598.670	547.407	3483.041	1994.197	3899.737	719.445
450	0.450	0.00554	464.183	1444.689	3502.838	1113.852	4599.103	1330.419
451	0.451	0.00576	586.310	458.991	3303.507	944.332	4082.900	593.891
452	0.452	0.00576	409.997	1510.070	3433.183	1036.892	4521.686	1294.937
453	0.453	0.00471	577.871	549.207	3550.342	684.627	4423.143	933.410
454	0.454	0.00471	545.368	917.858	3195.551	748.732	4163.642	516.470
455	0.455	0.00779	573.951	530.358	3470.506	718.736	4269.425	595.537
456	0.456	0.00779	405.448	1253.340	3202.774	702.162	4156.238	659.083
457	0.457	0.00522	535.153	776.815	3625.009	551.185	4742.914	860.108
458	0.458	0.00522	3427.263	520.232	--undefined--	--undefined--	--undefined--	--undefined--
459	0.459	0.00385	443.808	1151.157	3681.395	530.378	4740.657	676.819
460	0.460	0.00385	3377.107	775.071	4832.458	1340.124	--undefined--	--undefined--
461	0.461	0.00425	627.958	1159.963	3540.072	592.503	4508.811	484.786
462	0.462	0.00425	662.053	2377.537	3396.792	952.973	4667.715	1118.429
463	0.463	0.00234	1021.906	1159.734	3364.716	826.745	4448.784	561.219
464	0.464	0.00234	834.211	1817.928	3246.250	768.128	4383.011	651.344
465	0.465	0.00168	852.168	911.106	3568.755	1666.175	4628.128	989.713
466	0.466	0.00204	552.801	972.838	3312.528	800.434	4473.352	790.455
467	0.467	0.00204	638.294	779.277	3389.571	2299.440	4866.338	825.869
468	0.468	0.00346	561.054	771.894	2908.935	1160.894	4385.249	1164.413
469	0.469	0.00346	648.630	678.883	4433.321	519.544	--undefined--	--undefined--
470	0.470	0.00235	1182.866	916.000	4276.046	908.279	--undefined--	--undefined--
471	0.471	0.00257	541.835	1343.135	2572.574	2498.151	4882.663	967.479
472	0.472	0.00270	513.797	1232.547	1671.145	1431.525	--undefined--	--undefined--
473	0.473	0.00270	588.165	709.312	2543.964	1074.952	5048.156	538.475
474	0.474	0.00203	630.826	813.530	3202.052	2113.460	5018.315	1525.612
475	0.475	0.00203	586.812	770.773	2970.398	655.498	4991.190	585.651
476	0.476	0.00478	713.205	828.685	3269.289	713.312	4640.905	1360.106
477	0.477	0.00478	930.809	1487.722	3200.564	977.192	4994.577	1085.823
478	0.478	0.00400	1007.669	1142.717	3478.572	1098.922	4966.557	843.151
479	0.479	0.00400	750.910	615.993	3000.924	694.092	4004.527	731.338
480	0.480	0.00290	609.763	943.868	3209.567	1130.245	4918.851	677.086
481	0.481	0.00390	622.664	1027.392	3482.936	950.931	--undefined--	--undefined--
482	0.482	0.00390	567.789	797.755	2381.058	1244.600	4537.506	532.012
483	0.483	0.00254	1233.482	1013.618	3744.136	504.908	--undefined--	--undefined--
484	0.484	0.00254	597.482	775.870	2425.783	994.480	5110.734	897.757
485	0.485	0.00268	647.754	859.947	3294.233	1296.755	4279.736	877.685
486	0.486	0.00268	633.952	790.564	3215.930	710.886	4995.223	1015.331
487	0.487	0.00243	846.857	1219.557	3395.955	661.739	4609.059	835.368
488	0.488	0.00329	931.468	1078.818	3333.844	733.919	4764.347	1075.693
489	0.489	0.00329	676.488	1527.780	3381.761	943.328	4714.532	1084.301
490	0.490	0.00318	583.821	845.198	3344.260	725.105	4447.863	1416.122
491	0.491	0.00318	559.623	886.254	3311.312	1375.348	4970.248	1439.768
492	0.492	0.00239	669.929	1356.048	3921.184	496.019	--undefined--	--undefined--
493	0.493	0.00239	1218.188	1067.995	3735.400	990.838	--undefined--	--undefined--
494	0.494	0.00311	631.097	631.928	3675.498	1126.661	4290.259	1148.102
495	0.495	0.00311	639.020	789.481	3352.050	989.707	4787.434	1109.347
496	0.496	0.00374	961.520	1272.439	3331.502	745.258	4416.330	727.980
497	0.497	0.00374	871.406	888.205	3141.132	596.988	4179.614	530.593
498	0.498	0.00223	586.555	1321.323	3218.551	693.596	4356.175	764.338
499	0.499	0.00275	590.674	1040.893	3206.050	1082.097	4114.900	929.093
500	0.500	0.00275	553.919	1045.020	3014.355	1584.787	4205.781	844.323
501	0.501	0.00232	1068.695	1838.338	4098.258	639.502	--undefined--	--undefined--
502	0.502	0.00240	575.287	1245.342	2455.802	2962.050	4243.295	549.548
503	0.503	0.00315	656.561	1055.195	3490.344	808.772	4520.716	764.166
504	0.504	0.00315	904.505	1075.302	3225.765	841.212	4224.137	1170.026
505	0.505	0.00235	950.610	1311.454	3064.383	786.491	4156.296	600.465
506	0.506	0.00360	3284.330	640.935	--undefined--	--undefined--	--undefined--	--undefined--
507	0.507	0.00360	419.290	1208.119	3000.192	720.256	4010.429	696.908
508	0.508	0.00296	563.434	1473.186	2881.963	1452.314	4223.951	693.774
509	0.509	0.00296	610.528	1090.897	2599.721	1327.010	4089.482	674.129
510	0.510	0.00295	244.731	1969.373	2831.441	1713.002	4476.755	637.456
511	0.511	0.00321	821.033	552.204	2799.290	634.458	4057.414	484.433
512	0.512	0.00321	1016.016	1328.930	2983.497	857.223	4159.138	658.140
513	0.513	0.00182	430.200	1380.768	3138.999	747.459	4376.887	953.299
514	0.514	0.00182	501.051	827.286	2890.479	501.161	3969.402	490.807
515	0.515	0.00247	502.413	1475.015	2855.633	1169.763	4370.100	966.871
516	0.516	0.00251	610.045	1116.417	2532.209	1220.786	3931.611	1540.686
517	0.517	0.00251	634.030	1165.514	2766.015	868.125	4689.635	613.123
518	0.518	0.00169	820.186	352.529	2785.937	599.188	4096.079	521.425
519	0.519	0.00188	957.092	1762.618	3097.342	1105.423	4714.098	1422.270
520	0.520	0.00188	579.196	733.717	3270.228	764.231	4535.509	1019.495
521	0.521	0.00164	519.236	778.121	3034.183	578.638	--undefined--	--undefined--
522	0.522	0.00127	606.901	889.738	2710.212	1093.302	4389.805	792.680
523	0.523	0.00178	649.478	1027.260	2458.646	1372.579	4765.248	1669.916
524	0.524	0.00178	643.845	1487.269	2949.682	771.503	4810.201	822.056
525	0.525	0.00229	840.965	388.202	2840.428	789.112	4486.520	668.484
526	0.526	0.00229	825.397	1288.049	2924.883	959.767	4316.774	806.689
527	0.527	0.00229	582.562	506.068	3145.552	944.402	4300.054	868.333
528	0.528	0.00229	523.667	699.321	2828.904	1249.115	4913.999	475.301
529	0.529	0.00224	639.551	822.904	2661.819	818.992	5037.991	1157.594
530	0.530	0.00224	698.840	827.654	2287.006	1007.551	4681.991	659.542
531	0.531	0.00238	840.202	1109.682	3074.061	644.865	4436.357	621.866
532	0.532	0.00238	750.805	431.495	3043.339	902.984	4347.972	568.732
533	0.533	0.00221	646.951	1315.180	3073.529	1752.067	4829.478	1038.589
534	0.534	0.00274	577.986	504.959	3258.709	1161.296	4361.936	1395.220
535	0.535	0.00274	556.363	737.661	3175.221	2001.003	4866.168	804.594
536	0.536	0.00263	705.494	1096.800	2911.817	923.753	4981.184	3027.814
537	0.537	0.00263	863.214	787.994	2608.049	948.840	4708.233	1464.238
538	0.538	0.00244	868.677	972.788	3226.601	849.018	4761.485	789.774
539	0.539	0.00244	610.441	609.995	3151.232	1048.376	5244.540	2596.999
540	0.540	0.00282	997.669	1607.882	4590.510	865.240	--undefined--	--undefined--
541	0.541	0.00282	603.496	573.096	2771.926	1772.854	5127.235	1117.308
542	0.542	0.00206	651.389	1053.118	3041.152	2921.219	4969.060	869.893
543	0.543	0.00174	876.906	914.595	3215.272	1222.542	4910.263	984.995
544	0.544	0.00174	835.774	501.328	2810.450	1110.320	5096.717	585.611
545	0.545	0.00143	684.724	938.244	2872.002	1432.385	4796.072	924.271
546	0.546	0.00122	597.132	699.576	3471.576	1286.418	--undefined--	--undefined--
547	0.547	0.00122	614.024	734.687	4424.374	2442.629	--undefined--	--undefined--
548	0.548	0.00176	887.224	1453.718	3136.690	903.333	--undefined--	--undefined--
549	0.549	0.00176	879.342	546.087	2451.667	725.192	--undefined--	--undefined--
550	0.550	0.00166	804.189	541.578	3111.190	797.163	4560.743	724.309
551	0.551	0.00166	589.689	486.921	3133.285	1496.042	5233.690	1240.864
552	0.552	0.00145	588.615	690.622	2429.291	1278.199	4615.624	860.094
553	0.553	0.00175	693.874	709.108	2785.145	1389.691	5244.552	1049.070
554	0.554	0.00175	857.665	678.098	2299.625	1185.923	4825.527	1708.876
555	0.555	0.00201	841.986	534.428	3408.044	1000.406	4875.815	833.909
556	0.556	0.00201	594.817	536.716	3271.115	1465.840	5013.411	957.027
557	0.557	0.00153	591.192	1041.778	2031.941	2286.244	4931.145	666.775
558	0.558	0.00153	675.067	895.835	1581.265	7066.528	5071.163	917.147
559	0.559	0.00159	832.899	944.261	5142.128	1488.849	--undefined--	--undefined--
560	0.560	0.00159	905.140	552.494	3376.661	1449.804	5055.051	1204.589
561	0.561	0.00102	770.102	611.886	2711.991	2286.702	4426.991	1092.039
562	0.562	0.00176	629.515	741.892	2539.001	1483.946	4987.872	627.658
563	0.563	0.00176	667.295	1077.411	--undefined--	--undefined--	--undefined--	--undefined--
564	0.564	0.00143	661.872	840.760	4688.829	2541.140	--undefined--	--undefined--
565	0.565	0.00111	1108.085	1204.511	4045.461	2264.769	--undefined--	--undefined--
566	0.566	0.00111	897.069	455.145	2196.456	695.108	5198.945	906.223
567	0.567	0.00145	728.360	539.813	2940.887	1682.240	5009.207	827.529
568	0.568	0.00145	576.703	699.132	3424.441	1429.843	3661.062	4612.603
569	0.569	0.00139	667.435	1146.765	4032.751	3209.591	--undefined--	--undefined--
570	0.570	0.00090	1283.767	1032.610	5232.150	1537.966	--undefined--	--undefined--
571	0.571	0.00090	743.268	595.905	2091.599	1403.503	5291.021	1052.854
572	0.572	0.00113	885.472	515.665	2870.786	949.729	5242.009	1452.296
573	0.573	0.00113	659.903	784.670	2726.979	3250.773	4718.468	1798.044
574	0.574	0.00137	613.357	1030.319	2613.392	1508.501	--undefined--	--undefined--
575	0.575	0.00172	545.582	932.264	1810.768	1584.954	3830.587	1457.412
576	0.576	0.00172	644.259	800.556	3172.699	1581.017	--undefined--	--undefined--
577	0.577	0.00163	939.713	764.268	2236.015	851.463	4268.796	1447.371
578	0.578	0.00163	861.586	476.206	2393.232	824.650	5131.683	839.306
579	0.579	0.00145	676.588	1021.410	2574.172	539.476	4696.956	2280.309
580	0.580	0.00145	585.691	1158.428	2568.829	1111.202	--undefined--	--undefined--
581	0.581	0.00095	563.504	1283.620	2385.486	1004.570	3818.203	1293.545
582	0.582	0.00095	516.098	881.606	2518.588	456.469	--undefined--	--undefined--
583	0.583	0.00073	941.993	827.808	2254.474	654.350	4648.554	2003.084
584	0.584	0.00043	1172.898	813.277	2412.326	706.894	--undefined--	--undefined--
585	0.585	0.00043	404.332	1166.903	2652.222	636.500	3876.543	1303.670
586	0.586	0.00028	502.524	1053.461	2425.310	515.679	4947.156	852.139
587	0.587	0.00028	393.600	1410.620	2501.109	743.773	4816.834	2663.663
588	0.588	0.00027	656.742	2184.627	2386.692	1176.500	4742.880	1456.144
589	0.589	0.00016	1283.652	1842.724	2455.862	659.896	5389.425	1372.926
590	0.590	0.00016	943.862	1270.683	1951.990	1002.236	4759.834	939.530
591	0.591	0.00007	1204.198	1310.310	2355.113	932.494	4770.350	1064.537
592	0.592	0.00008	893.480	1572.375	2947.315	2010.533	--undefined--	--undefined--
593	0.593	0.00008	1921.039	780.025	4778.711	763.558	--undefined--	--undefined--
594	0.594	0.00005	1232.995	431.330	4270.386	646.050	--undefined--	--undefined--
595	0.595	0.00003	1871.313	489.485	2918.192	1519.139	4813.903	807.581
596	0.596	0.00009	1334.162	674.875	2530.563	1509.752	4745.855	816.729
597	0.597	0.00009	1970.019	573.643	4394.319	898.280	--undefined--	--undefined--
598	0.598	0.00003	1411.568	729.753	2496.196	780.771	4433.068	1262.526
599	0.599	0.00003	1521.676	1015.839	2907.423	3063.711	4610.600	1673.511
600	0.600	0.00003	2066.696	906.369	2994.724	7547.697	4579.996	1896.888
601	0.601	0.00003	1222.761	663.682	3857.148	948.252	--undefined--	--undefined--
602	0.602	0.00005	1775.996	758.792	4491.204	1075.706	--undefined--	--undefined--
603	0.603	0.00005	1180.857	875.169	4114.772	916.057	--undefined--	--undefined--
604	0.604	0.00004	1583.344	1021.604	4777.883	1026.893	--undefined--	--undefined--
605	0.605	0.00003	1001.924	482.946	3272.746	716.235	--undefined--	--undefined--
606	0.606	0.00003	927.773	969.604	2167.614	967.445	4871.229	584.520
607	0.607	0.00002	1049.934	1140.926	3117.723	922.624	--undefined--	--undefined--
608	0.608	0.00002	493.742	533.708	2507.443	699.477	3919.934	893.597
609	0.609	0.00002	430.569	1683.483	2574.341	1698.043	4946.853	2397.096
610	0.610	0.00002	526.816	607.867	3220.640	2652.672	3546.017	1181.056
611	0.611	0.00002	2361.033	964.261	4093.897	1019.147	--undefined--	--undefined--
612	0.612	0.00002	600.577	559.285	3496.624	1040.816	4566.725	3072.319
613	0.613	0.00002	2007.211	1067.535	4260.012	1120.970	--undefined--	--undefined--
614	0.614	0.00002	1095.321	644.867	3805.466	793.285	--undefined--	--undefined--
615	0.615	0.00003	1597.214	781.719	4408.917	670.521	--undefined--	--undefined--
616	0.616	0.00003	1079.983	599.692	4883.997	1077.352	--undefined--	--undefined--
617	0.617	0.00002	1454.611	645.009	4419.599	1241.591	--undefined--	--undefined--
618	0.618	0.00002	1125.691	903.514	4405.971	1082.543	--undefined--	--undefined--
619	0.619	0.00002	1454.516	1150.477	4444.402	913.358	--undefined--	--undefined--
620	0.620	0.00002	1267.490	1174.722	3082.484	1137.650	--undefined--	--undefined--
621	0.621	0.00002	2539.115	2061.196	4242.666	802.272	--undefined--	--undefined--
622	0.622	0.00002	647.443	1367.809	2293.626	1199.597	3898.029	946.965
623	0.623	0.00003	137.823	1190.354	2501.538	622.556	3764.940	507.155
624	0.624	0.00003	2321.241	1115.999	4012.265	904.623	--undefined--	--undefined--
625	0.625	0.00003	2099.901	1715.488	4087.669	946.362	--undefined--	--undefined--
626	0.626	0.00003	2324.440	776.645	3921.480	868.545	--undefined--	--undefined--
627	0.627	0.00005	1001.106	1619.596	1790.846	2784.863	3966.701	564.487
628	0.628	0.00005	1986.439	1079.922	2654.841	2907.207	4115.523	743.645
629	0.629	0.00004	1173.812	4910.159	1278.010	721.213	3982.804	543.417
630	0.630	0.00004	1789.000	1106.200	3958.357	1085.656	--undefined--	--undefined--
631	0.631	0.00007	1236.972	622.603	3645.526	1855.310	--undefined--	--undefined--
632	0.632	0.00007	680.094	1549.945	1958.003	710.881	4347.272	847.879
633	0.633	0.00006	1195.152	728.674	3235.016	1179.013	--undefined--	--undefined--
634	0.634	0.00006	617.977	1062.710	1868.640	618.824	4532.002	1031.119
635	0.635	0.00006	1052.267	654.575	3386.479	765.966	--undefined--	--undefined--
636	0.636	0.00007	505.681	1641.283	1829.922	873.042	4843.727	765.611
637	0.637	0.00012	634.659	592.462	2996.301	1261.337	--undefined--	--undefined--
638	0.638	0.00012	656.522	836.357	1941.080	520.703	4621.423	862.927
639	0.639	0.00008	685.373	710.162	3050.261	883.969	--undefined--	--undefined--
640	0.640	0.00008	646.298	1471.102	1954.167	710.420	4800.728	1000.709
641	0.641	0.00016	691.091	686.429	2359.878	1350.801	3489.612	695.071
642	0.642	0.00016	602.590	2217.184	2007.937	960.391	4451.812	972.803
643	0.643	0.00021	944.548	1170.943	2924.320	1345.268	--undefined--	--undefined--
644	0.644	0.00021	1177.256	1762.414	2130.534	1193.652	4343.647	1286.101
645	0.645	0.00023	1053.998	916.559	2574.712	1397.771	4458.954	1454.837
646	0.646	0.00023	1552.461	1055.944	2722.472	2556.981	4496.105	1364.328
647	0.647	0.00046	1152.469	809.583	2836.377	1441.881	4309.875	1338.627
648	0.648	0.00046	1360.428	1086.053	2551.234	1488.535	4164.940	731.589
649	0.649	0.00028	1156.994	863.046	2722.794	1508.843	4231.272	1266.372
650	0.650	0.00028	1924.336	1545.975	4147.279	1347.398	--undefined--	--undefined--
651	0.651	0.00087	1113.530	1210.097	2827.150	2063.082	4395.164	1842.363
652	0.652	0.00087	1971.661	1262.172	4151.681	958.017	--undefined--	--undefined--
653	0.653	0.00064	845.115	1125.235	2552.430	1602.376	4066.302	833.896
654	0.654	0.00151	2026.598	1697.788	4018.937	1189.422	--undefined--	--undefined--
655	0.655	0.00151	776.559	1657.884	2741.776	3535.470	4120.029	1607.440
656	0.656	0.00112	1822.150	1451.739	4076.522	1134.439	--undefined--	--undefined--
657	0.657	0.00165	651.868	1264.473	2494.996	3119.319	4042.857	1003.152
658	0.658	0.00208	1998.052	1684.137	4198.471	645.220	--undefined--	--undefined--
659	0.659	0.00208	631.530	1199.405	2054.188	4044.177	4074.303	777.071
660	0.660	0.00331	1913.605	2188.803	4483.452	831.811	--undefined--	--undefined--
661	0.661	0.00331	1029.649	1284.356	4066.085	932.645	--undefined--	--undefined--
662	0.662	0.00348	2047.993	2395.253	4461.750	801.406	--undefined--	--undefined--
663	0.663	0.00348	1089.433	950.437	4144.956	1037.776	--undefined--	--undefined--
664	0.664	0.00471	337.412	744.013	2243.898	1403.770	4654.596	656.163
665	0.665	0.00471	1192.979	1074.004	4443.487	1041.580	--undefined--	--undefined--
666	0.666	0.00549	349.040	653.958	2242.627	973.315	4701.972	619.875
667	0.667	0.00549	290.921	1791.734	1465.265	1614.566	4622.653	887.447
668	0.668	0.00674	373.483	539.834	2204.944	646.631	4800.641	670.527
669	0.669	0.00674	504.892	1212.202	1692.228	1330.346	4401.700	656.133
670	0.670	0.00612	71.241	1014.640	2152.591	949.362	4719.569	630.197
671	0.671	0.00612	1187.819	1218.103	4542.307	667.764	--undefined--	--undefined--
672	0.672	0.00584	2062.871	718.914	4639.529	606.858	--undefined--	--undefined--
673	0.673	0.00584	1239.467	1271.977	4771.088	756.390	--undefined--	--undefined--
674	0.674	0.00771	174.427	928.781	1972.994	468.621	4672.045	614.650
675	0.675	0.00771	426.458	1803.420	1435.102	1613.222	4648.821	851.587
676	0.676	0.00496	1846.362	668.506	4925.090	528.691	--undefined--	--undefined--
677	0.677	0.00496	455.702	1825.655	1491.464	1604.183	4618.395	969.610
678	0.678	0.00516	548.632	925.814	1900.802	513.421	4441.971	1125.278
679	0.679	0.00516	639.140	1166.119	1911.664	1355.722	4271.824	798.084
680	0.680	0.00445	696.389	1064.403	1984.830	653.358	4976.837	1631.145
681	0.681	0.00613	771.706	1500.227	2034.155	1724.675	4296.239	1295.199
682	0.682	0.00613	752.832	1103.616	2018.046	805.864	4289.994	732.740
683	0.683	0.00991	953.981	1163.535	2244.716	1449.953	4242.059	847.990
684	0.684	0.00991	845.617	1581.340	2086.161	1298.110	4218.432	766.118
685	0.685	0.01440	1015.652	897.215	2160.043	934.281	4189.507	401.142
686	0.686	0.01440	1033.430	1956.277	1967.249	1239.180	4242.980	702.683
687	0.687	0.01983	2238.528	1129.081	3892.982	921.784	--undefined--	--undefined--
688	0.688	0.01983	1857.106	708.942	4259.284	709.829	--undefined--	--undefined--
689	0.689	0.01872	2156.610	699.987	4022.906	1307.048	--undefined--	--undefined--
690	0.690	0.01872	2166.248	538.758	4388.801	1130.311	--undefined--	--undefined--
691	0.691	0.01868	396.047	2080.147	2008.751	476.750	4373.429	522.928
692	0.692	0.01868	478.479	1843.462	2222.568	1048.520	4687.194	1029.961
693	0.693	0.00932	2161.208	812.454	4402.554	1084.083	--undefined--	--undefined--
694	0.694	0.01427	1000.596	1449.314	3021.707	3693.252	4021.810	1660.585
695	0.695	0.01427	1300.268	1837.252	3617.107	1881.878	--undefined--	--undefined--
696	0.696	0.02190	1043.966	472.542	3265.268	692.956	--undefined--	--undefined--
697	0.697	0.02190	1221.125	1404.419	3964.664	971.751	--undefined--	--undefined--
698	0.698	0.01493	827.870	1197.212	3076.091	1020.735	--undefined--	--undefined--
699	0.699	0.01493	940.418	399.065	4319.821	639.218	--undefined--	--undefined--
700	0.700	0.01313	963.301	527.708	2824.852	631.579	--undefined--	--undefined--
701	0.701	0.01313	1225.532	1252.879	4376.557	1885.369	--undefined--	--undefined--
702	0.702	0.00515	1293.615	3139.975	1355.450	732.564	4462.053	1051.153
703	0.703	0.01306	1101.658	878.295	2637.580	3371.104	4723.628	2370.441
704	0.704	0.01306	1035.933	1406.608	1851.349	1957.978	4001.017	1312.594
705	0.705	0.01351	704.279	1089.710	2079.892	1962.132	--undefined--	--undefined--
706	0.706	0.01351	1069.084	283.654	4248.167	605.538	--undefined--	--undefined--
707	0.707	0.01358	978.302	665.524	2330.868	1931.945	5380.577	2136.857
708	0.708	0.01358	646.884	1494.571	1673.908	1454.445	4374.117	796.564
709	0.709	0.00552	996.710	556.190	1854.766	528.833	4497.387	1252.793
710	0.710	0.01175	927.368	568.575	2991.174	2145.076	--undefined--	--undefined--
711	0.711	0.01175	680.494	876.574	1869.806	1222.796	3743.550	695.768
712	0.712	0.00928	610.372	980.594	1556.464	1780.646	3592.346	1047.010
713	0.713	0.00928	1090.697	559.963	4277.555	1047.838	--undefined--	--undefined--
714	0.714	0.00473	1050.591	604.291	2151.874	956.215	3826.213	2086.033
715	0.715	0.01444	736.739	1186.065	1989.713	1431.331	4014.119	1478.754
716	0.716	0.01444	1087.463	636.624	2039.450	925.423	4047.918	1658.313
717	0.717	0.01628	1112.564	525.024	3942.333	342.103	--undefined--	--undefined--
718	0.718	0.01628	899.683	695.079	3811.691	703.600	--undefined--	--undefined--
719	0.719	0.01683	624.616	687.379	1814.332	2402.680	3495.907	1001.885
720	0.720	0.01683	1234.910	834.062	2606.951	1080.676	--undefined--	--undefined--
721	0.721	0.00341	893.111	729.553	1856.030	577.102	4735.359	1599.633
722	0.722	0.01738	866.285	670.260	2326.801	2015.185	3610.163	980.338
723	0.723	0.01738	792.053	930.919	2527.097	2083.774	3688.328	1662.151
724	0.724	0.01882	538.154	498.675	2116.647	1090.601	5284.429	1364.122
725	0.725	0.01882	1198.683	584.151	3988.434	1678.170	--undefined--	--undefined--
726	0.726	0.00447	1027.003	667.959	1999.131	841.173	--undefined--	--undefined--
727	0.727	0.02161	773.085	1033.401	2318.242	1350.798	3754.964	1228.930
728	0.728	0.02161	1019.497	803.237	2403.144	1585.175	4422.496	1967.344
729	0.729	0.01685	623.585	985.194	1326.419	4609.811	3029.063	1233.378
730	0.730	0.01685	956.300	576.410	1940.869	638.588	4538.458	3820.271
731	0.731	0.00530	1227.682	497.917	2309.934	522.553	--undefined--	--undefined--
732	0.732	0.01791	734.092	1138.048	2186.109	1249.984	3871.525	1588.519
733	0.733	0.01791	986.694	731.875	2233.516	749.243	4627.961	949.611
734	0.734	0.01851	496.228	542.206	2758.381	543.149	--undefined--	--undefined--
735	0.735	0.01851	978.398	455.407	1962.567	411.895	4518.885	1177.933
736	0.736	0.00640	1159.066	545.623	2147.170	543.267	--undefined--	--undefined--
737	0.737	0.01515	918.654	1218.942	2233.485	1253.824	4686.941	1560.967
738	0.738	0.01515	839.884	1202.716	2195.741	803.142	4351.983	1048.532
739	0.739	0.01927	2119.107	877.622	2808.450	3944.322	--undefined--	--undefined--
740	0.740	0.01927	990.786	645.586	2052.929	607.279	5278.317	1746.781
741	0.741	0.00536	1158.748	745.006	2164.976	739.757	--undefined--	--undefined--
742	0.742	0.01366	1026.154	501.499	3068.094	1930.917	--undefined--	--undefined--
743	0.743	0.01366	498.091	834.238	2490.606	836.576	4290.440	1222.275
744	0.744	0.01658	1536.929	1117.531	2361.753	1004.599	--undefined--	--undefined--
745	0.745	0.01658	1114.021	1100.795	2271.820	1003.312	--undefined--	--undefined--
746	0.746	0.00558	1319.836	976.573	2363.396	1037.796	--undefined--	--undefined--
747	0.747	0.02031	827.834	932.621	2342.708	1164.171	3974.527	1952.984
748	0.748	0.02031	753.013	783.579	1913.473	525.714	3925.536	647.626
749	0.749	0.00626	1291.594	844.695	2178.243	656.203	--undefined--	--undefined--
750	0.750	0.01711	969.626	1154.091	2285.280	1345.959	3832.092	1311.179
751	0.751	0.01711	1105.811	1191.060	2220.552	539.158	3765.771	1431.393
752	0.752	0.02286	1477.245	569.243	2475.416	856.095	3553.655	946.178
753	0.753	0.02286	1204.052	1100.458	2321.411	1368.885	3319.497	4871.923
754	0.754	0.00648	1090.832	860.502	2079.735	763.555	3576.085	1142.416
755	0.755	0.02038	856.567	949.580	3504.792	478.654	--undefined--	--undefined--
756	0.756	0.02038	810.964	988.987	1927.968	683.413	3962.690	1795.570
757	0.757	0.00863	1309.872	750.324	2119.219	968.456	3926.630	1860.594
758	0.758	0.02546	1069.889	754.999	2543.000	1309.069	3610.035	1221.122
759	0.759	0.02546	2296.158	622.596	3796.873	1649.992	--undefined--	--undefined--
760	0.760	0.02389	1452.266	691.512	2361.382	793.217	3501.720	680.605
761	0.761	0.02389	1129.069	1614.114	2245.476	1811.077	--undefined--	--undefined--
762	0.762	0.01443	1130.792	1033.520	2219.256	841.313	--undefined--	--undefined--
763	0.763	0.02049	463.546	1869.826	1549.898	921.045	3614.031	529.161
764	0.764	0.02049	1054.108	510.932	1978.770	498.711	--undefined--	--undefined--
765	0.765	0.00557	1013.378	643.701	1969.339	516.998	3714.653	2604.345
766	0.766	0.02495	617.263	532.143	2637.883	853.262	4482.195	2243.842
767	0.767	0.02495	877.889	1003.148	2015.401	689.567	4117.473	1284.054
768	0.768	0.00444	1254.558	960.461	2108.734	1214.901	2907.663	1494.421
769	0.769	0.02046	1088.257	765.379	2519.696	732.320	--undefined--	--undefined--
770	0.770	0.02046	2103.089	596.372	3356.319	1683.854	--undefined--	--undefined--
771	0.771	0.00462	1317.182	599.352	2174.525	601.453	3261.547	643.697
772	0.772	0.01961	923.385	1331.653	2110.009	1253.272	4198.001	2646.406
773	0.773	0.01961	1213.906	762.059	2185.009	501.201	4552.648	1183.413
774	0.774	0.01905	1121.727	1675.398	1965.438	992.908	3744.706	1090.111
775	0.775	0.01905	1273.580	1185.180	2377.878	1129.214	--undefined--	--undefined--
776	0.776	0.00820	1031.005	1017.211	2074.689	720.182	4338.555	4225.187
777	0.777	0.01948	1550.381	871.578	4330.303	1533.765	--undefined--	--undefined--
778	0.778	0.01948	1233.612	646.485	2272.166	714.466	--undefined--	--undefined--
779	0.779	0.00533	1323.726	600.609	2279.076	487.970	--undefined--	--undefined--
780	0.780	0.01796	2580.674	1362.997	--undefined--	--undefined--	--undefined--	--undefined--
781	0.781	0.01796	998.558	650.395	1959.868	520.961	4485.971	1284.786
782	0.782	0.00535	1248.093	558.658	2217.951	550.524	--undefined--	--undefined--
783	0.783	0.02028	609.491	853.211	2425.030	1225.322	--undefined--	--undefined--
784	0.784	0.02028	825.278	1246.203	1919.949	770.299	4316.849	1038.228
785	0.785	0.00356	1323.690	861.407	1811.444	4148.782	2350.236	768.834
786	0.786	0.02003	1225.107	918.214	4113.363	1517.743	--undefined--	--undefined--
787	0.787	0.02003	2031.245	974.304	4163.780	1471.688	--undefined--	--undefined--
788	0.788	0.00320	1223.456	898.745	2166.560	919.359	3600.437	1847.840
789	0.789	0.01703	1217.747	581.584	3895.886	840.198	--undefined--	--undefined--
790	0.790	0.01703	2175.599	618.028	3944.506	953.344	--undefined--	--undefined--
791	0.791	0.00268	1293.853	590.112	2283.398	744.605	3572.415	710.860
792	0.792	0.01274	1210.546	711.687	3521.248	1046.077	--undefined--	--undefined--
793	0.793	0.01274	2142.412	473.751	4552.465	1957.112	--undefined--	--undefined--
794	0.794	0.00291	1514.730	513.269	2684.823	973.269	3973.083	1731.499
795	0.795	0.01695	1178.884	1007.968	1930.450	3373.588	3753.875	1198.454
796	0.796	0.01695	741.225	1805.259	2241.960	523.730	4344.731	1672.469
797	0.797	0.00403	1534.532	481.750	2660.608	935.083	3702.697	1059.830
798	0.798	0.01484	1255.199	929.476	3249.339	1505.634	--undefined--	--undefined--
799	0.799	0.01484	2127.081	1769.288	2545.591	1315.314	--undefined--	--undefined--
800	0.800	0.00352	1544.149	504.870	2751.331	1076.143	3576.281	1311.505
801	0.801	0.01316	1174.229	936.173	3274.361	1406.901	--undefined--	--undefined--
802	0.802	0.01316	417.875	3154.609	2530.717	1032.988	--undefined--	--undefined--
803	0.803	0.00233	1501.123	598.574	2521.635	1018.940	3650.819	719.671
804	0.804	0.01237	1021.999	897.242	2669.434	4417.766	3345.387	1308.982
805	0.805	0.01237	689.707	1086.495	2489.648	720.716	3882.519	1112.140
806	0.806	0.00221	1757.061	717.714	3199.090	860.008	--undefined--	--undefined--
807	0.807	0.00878	1040.690	662.298	2998.807	961.431	--undefined--	--undefined--
808	0.808	0.00878	631.797	596.260	2785.059	838.881	4257.567	1133.845
809	0.809	0.00141	1195.100	1033.663	2104.719	797.736	3316.755	597.147
810	0.810	0.00950	920.944	412.699	2866.425	846.579	4872.081	4239.754
811	0.811	0.00950	654.279	876.736	2329.994	1360.268	4017.217	1155.084
812	0.812	0.00141	1492.662	1072.074	2065.096	3031.388	2903.078	1205.015
813	0.813	0.00974	811.457	427.240	2764.745	1356.454	--undefined--	--undefined--
814	0.814	0.00974	692.107	917.798	1944.791	963.634	3822.948	979.525
815	0.815	0.00189	1326.017	786.839	2512.765	1030.517	2623.367	3505.908
816	0.816	0.00700	884.658	914.213	2708.016	1046.569	--undefined--	--undefined--
817	0.817	0.00700	776.688	822.814	1798.336	696.481	3806.675	1142.533
818	0.818	0.00416	1351.329	640.481	2500.300	779.174	--undefined--	--undefined--
819	0.819	0.00837	546.305	570.849	3174.734	814.241	--undefined--	--undefined--
820	0.820	0.00837	943.957	452.372	1854.015	399.593	5211.757	2023.480
821	0.821	0.00384	1314.210	736.558	2332.206	660.488	--undefined--	--undefined--
822	0.822	0.00688	598.118	1405.714	2950.166	1103.128	--undefined--	--undefined--
823	0.823	0.00688	1003.017	848.183	2014.601	915.231	--undefined--	--undefined--
824	0.824	0.00377	701.377	917.698	1938.434	651.009	--undefined--	--undefined--
825	0.825	0.00181	687.304	1734.950	1759.445	1326.627	3467.026	1207.150
826	0.826	0.00423	907.587	1775.794	2440.446	2823.946	4159.434	3581.494
827	0.827	0.00423	588.150	713.486	2293.002	466.095	4511.770	717.169
828	0.828	0.00133	1630.733	641.991	3711.341	531.506	--undefined--	--undefined--
829	0.829	0.00487	786.976	487.772	2907.176	766.802	3929.420	824.327
830	0.830	0.00487	917.700	808.181	2155.897	796.797	4094.462	1073.361
831	0.831	0.00119	1095.522	1747.495	2072.054	1207.602	3378.809	899.233
832	0.832	0.00417	847.895	1556.832	3522.586	461.232	--undefined--	--undefined--
833	0.833	0.00417	854.301	707.366	1794.994	524.002	4172.645	1003.937
834	0.834	0.00191	804.792	1414.254	1751.301	1038.001	3738.574	1373.796
835	0.835	0.00193	273.427	1699.725	2232.420	1106.456	3405.928	750.082
836	0.836	0.00270	991.860	1625.441	2184.479	1663.668	4252.251	2169.978
837	0.837	0.00270	533.233	982.109	2034.486	870.809	4494.672	623.641
838	0.838	0.00197	2263.285	956.012	3772.874	887.425	--undefined--	--undefined--
839	0.839	0.00351	883.484	755.524	2816.459	492.131	4262.099	2416.329
840	0.840	0.00351	858.958	1076.952	2441.440	1152.217	4052.614	905.012
841	0.841	0.00171	873.617	1181.640	1807.292	971.245	4083.609	2985.987
842	0.842	0.00259	614.849	1206.864	1995.032	1037.413	3440.063	781.592
843	0.843	0.00288	1003.021	472.240	1938.182	473.468	4532.876	1090.738
844	0.844	0.00288	737.037	740.882	1864.414	596.259	4505.231	1912.898
845	0.845	0.00160	1906.241	850.285	4425.142	3318.634	--undefined--	--undefined--
846	0.846	0.00436	927.438	1036.562	2135.487	1036.952	4112.844	1218.190
847	0.847	0.00436	713.710	646.312	2411.657	1225.389	4416.394	464.586
848	0.848	0.00180	773.209	1324.689	1874.901	515.393	4540.787	939.801
849	0.849	0.00428	619.919	857.679	2070.912	669.451	3954.212	1066.723
850	0.850	0.00428	943.178	609.434	1912.243	539.906	4342.029	752.421
851	0.851	0.00244	1033.465	594.569	2038.615	712.569	4165.253	1078.027
852	0.852	0.00120	2176.531	694.699	4698.188	1209.029	--undefined--	--undefined--
853	0.853	0.00362	1036.399	1591.947	2097.095	1394.372	4324.790	2338.542
854	0.854	0.00362	2005.781	904.605	4445.060	835.121	--undefined--	--undefined--
855	0.855	0.00204	1254.832	1910.950	1829.674	650.578	4150.363	655.013
856	0.856	0.00379	387.026	1801.400	2081.397	699.696	3641.784	937.537
857	0.857	0.00379	1030.093	526.949	1968.911	496.962	4619.962	1063.595
858	0.858	0.00299	1017.855	732.618	2019.633	721.284	4545.219	1401.101
859	0.859	0.00162	1208.864	2302.735	1829.962	674.190	4362.871	2173.053
860	0.860	0.00598	1158.141	1401.733	2145.174	1529.182	3928.444	2314.488
861	0.861	0.00598	1976.932	476.639	4302.513	798.227	--undefined--	--undefined--
862	0.862	0.00332	1211.834	873.251	2068.360	587.421	4229.124	981.168
863	0.863	0.00757	1970.684	931.166	3598.219	1318.778	--undefined--	--undefined--
864	0.864	0.00757	1034.315	419.134	1948.126	399.981	4515.818	1292.404
865	0.865	0.00333	969.100	874.934	2036.691	782.957	3917.302	1970.320
866	0.866	0.00215	1288.729	1155.327	1975.182	849.043	3839.445	609.052
867	0.867	0.00859	1254.291	783.739	2310.834	915.985	4244.363	2608.445
868	0.868	0.00859	1197.282	1066.270	2198.211	1172.969	4173.851	784.955
869	0.869	0.00268	883.916	1028.833	1795.853	655.687	4499.052	898.167
870	0.870	0.00475	1614.436	778.351	2796.180	717.344	--undefined--	--undefined--
871	0.871	0.00627	845.523	945.239	1897.994	770.242	4081.287	1068.416
872	0.872	0.00627	2057.555	963.424	4186.846	771.949	--undefined--	--undefined--
873	0.873	0.00251	1373.093	421.354	2262.019	519.214	4728.962	682.665
874	0.874	0.00603	1607.711	621.314	4164.303	1302.745	--undefined--	--undefined--
875	0.875	0.00603	1041.784	471.090	1945.791	480.275	4447.878	694.838
876	0.876	0.00327	921.933	876.983	2009.210	709.256	4344.595	1087.436
877	0.877	0.00283	1309.088	1243.033	1908.306	855.081	4552.020	934.465
878	0.878	0.00602	1363.319	1190.061	2034.228	812.858	--undefined--	--undefined--
879	0.879	0.00602	1056.489	823.305	2054.427	738.441	4242.610	915.740
880	0.880	0.00320	1019.010	570.860	1968.220	498.295	4106.734	1005.389
881	0.881	0.00202	1636.972	1014.627	2176.378	1239.689	4116.435	3468.171
882	0.882	0.00782	1104.251	552.639	2031.848	575.844	3934.545	1040.241
883	0.883	0.00782	1497.496	775.502	2258.521	1015.703	4277.729	657.001
884	0.884	0.00250	999.110	615.246	1944.084	407.664	4535.167	2125.077
885	0.885	0.00146	1102.540	1513.214	2035.831	1121.422	3256.959	1997.165
886	0.886	0.00819	958.661	1175.884	1934.497	1110.218	4331.870	1726.266
887	0.887	0.00819	1742.537	533.135	4467.711	787.190	--undefined--	--undefined--
888	0.888	0.00182	1356.169	403.137	2239.221	526.017	4320.574	776.487
889	0.889	0.00554	1083.072	1436.007	1979.060	836.728	3935.198	947.479
890	0.890	0.00554	898.293	823.213	1911.020	747.739	4167.900	1389.659
891	0.891	0.00182	603.202	927.799	1862.202	723.414	4453.348	529.096
892	0.892	0.00138	1385.394	634.634	2379.221	1017.779	4292.163	1282.126
893	0.893	0.00569	1817.179	401.949	3911.548	724.040	--undefined--	--undefined--
894	0.894	0.00569	976.055	548.141	1854.161	529.656	4381.893	572.381
895	0.895	0.00184	687.706	1017.335	2041.164	828.533	4513.306	609.741
896	0.896	0.00102	1084.322	2300.931	1630.980	951.944	4316.307	786.505
897	0.897	0.00329	2403.216	1064.882	4005.366	624.907	--undefined--	--undefined--
898	0.898	0.00329	1066.106	642.255	1851.235	721.472	4525.821	584.998
899	0.899	0.00139	713.024	1022.812	2023.954	662.510	4420.013	540.175
900	0.900	0.00052	797.539	1007.378	1820.352	581.685	4411.209	670.422
901	0.901	0.00329	1926.666	583.820	3825.982	956.202	--undefined--	--undefined--
902	0.902	0.00329	1064.675	620.956	1882.771	674.773	4553.602	572.559
903	0.903	0.00117	706.841	1180.173	1909.392	784.989	4398.897	488.334
904	0.904	0.00058	445.114	2625.802	1596.853	797.932	4372.662	642.045
905	0.905	0.00419	1985.473	994.548	3820.741	1043.034	--undefined--	--undefined--
906	0.906	0.00419	950.800	521.717	1854.436	465.501	4479.008	565.130
907	0.907	0.00134	665.510	1194.076	1921.388	646.500	4344.912	474.386
908	0.908	0.00110	476.557	1927.993	1911.649	736.829	4289.293	494.140
909	0.909	0.00406	1785.592	688.410	4303.308	1539.064	--undefined--	--undefined--
910	0.910	0.00406	844.918	752.431	1830.424	636.328	4340.550	1171.641
911	0.911	0.00117	337.601	1683.570	2070.082	815.858	4274.411	656.569
912	0.912	0.00090	1957.733	534.826	4492.852	552.151	--undefined--	--undefined--
913	0.913	0.00141	614.899	915.482	1908.714	583.128	4187.949	1324.378
914	0.914	0.00297	808.085	1116.576	1932.527	1131.541	3919.270	1057.672
915	0.915	0.00297	1938.808	795.762	3998.208	804.264	--undefined--	--undefined--
916	0.916	0.00086	1920.319	722.108	4306.272	663.613	--undefined--	--undefined--
917	0.917	0.00027	737.658	1001.565	1831.534	720.886	4595.245	1644.638
918	0.918	0.00314	986.893	866.801	2244.307	1606.146	3829.342	1370.345
919	0.919	0.00314	1286.096	730.223	2651.027	5692.850	3976.150	810.786
920	0.920	0.00067	1007.799	2076.253	1886.483	1892.612	4011.626	1002.916
921	0.921	0.00022	1327.137	715.950	1695.707	1873.115	4116.123	568.888
922	0.922	0.00228	802.691	646.224	2440.427	2814.269	4496.890	1507.139
923	0.923	0.00228	914.928	818.919	1941.247	744.066	4416.268	916.804
924	0.924	0.00051	1093.835	869.401	1716.397	1063.623	4310.736	400.384
925	0.925	0.00038	1028.290	792.130	2000.608	753.974	4371.113	1101.250
926	0.926	0.00210	1530.967	616.724	3664.306	1522.749	--undefined--	--undefined--
927	0.927	0.00210	959.597	536.699	1815.446	505.953	4334.628	502.208
928	0.928	0.00089	1960.078	686.934	4363.823	741.629	--undefined--	--undefined--
929	0.929	0.00034	810.390	1467.321	2010.001	626.049	4312.747	616.650
930	0.930	0.00031	949.746	1061.426	1973.090	687.030	4267.321	2175.404
931	0.931	0.00182	873.851	1006.966	2034.177	1118.875	3987.974	986.698
932	0.932	0.00182	1548.004	700.002	4147.252	813.199	--undefined--	--undefined--
933	0.933	0.00052	730.248	2143.284	1841.856	1192.612	4066.423	648.044
934	0.934	0.00029	1020.281	580.740	1918.684	550.798	4044.685	591.261
935	0.935	0.00133	265.234	1383.859	2264.310	1488.865	4360.683	1520.078
936	0.936	0.00133	975.417	723.886	1937.052	657.983	4101.865	954.995
937	0.937	0.00085	986.880	1255.765	1717.189	957.747	4367.505	813.154
938	0.938	0.00039	1207.354	622.552	2222.948	792.419	3852.296	1255.342
939	0.939	0.00117	908.458	729.071	1879.024	398.685	3876.637	929.227
940	0.940	0.00185	864.674	1239.001	1917.040	1144.818	3964.852	1543.515
941	0.941	0.00185	1955.492	774.152	3929.552	1034.867	--undefined--	--undefined--
942	0.942	0.00053	1902.533	794.496	3955.839	795.377	--undefined--	--undefined--
943	0.943	0.00028	920.759	951.086	1903.639	869.035	3613.546	1056.040
944	0.944	0.00204	591.634	1247.689	3205.659	1486.687	--undefined--	--undefined--
945	0.945	0.00204	1001.869	877.924	2008.037	908.561	4036.495	2252.427
946	0.946	0.00088	1157.923	1401.956	1487.179	1093.806	4300.008	861.495
947	0.947	0.00037	1269.594	778.628	2349.190	983.782	3742.954	1547.545
948	0.948	0.00023	1247.960	1348.973	1844.926	1249.214	3628.437	2240.260
949	0.949	0.00171	854.805	1552.139	1870.516	1544.941	4172.452	1978.705
950	0.950	0.00171	618.675	2513.308	1760.676	1573.851	3968.057	744.466
951	0.951	0.00026	476.733	2258.969	1794.201	1190.121	3908.284	663.746
952	0.952	0.00025	1061.946	920.784	1895.466	1011.234	4021.575	1075.202
953	0.953	0.00161	397.184	1286.256	1711.475	1152.097	4465.886	2062.898
954	0.954	0.00161	968.772	417.491	1862.365	376.101	4417.950	726.361
955	0.955	0.00067	844.213	1110.327	2046.110	697.007	4485.598	1236.911
956	0.956	0.00031	1235.901	1010.994	2265.724	879.219	5308.532	3166.126
957	0.957	0.00021	1400.801	848.889	1983.243	948.494	--undefined--	--undefined--
958	0.958	0.00125	1001.962	953.089	2351.885	1480.048	4476.605	1651.352
959	0.959	0.00125	1203.954	689.607	2030.050	1420.671	4064.302	608.591
960	0.960	0.00033	1173.035	1179.335	1740.915	2103.322	4110.340	1028.456
961	0.961	0.00033	1095.128	1206.424	1981.209	1351.021	3932.775	1132.279
962	0.962	0.00019	797.237	1234.819	1825.049	1007.237	3649.845	1540.529
963	0.963	0.00086	802.075	1430.759	1947.754	1202.189	4369.776	1780.628
964	0.964	0.00086	1747.852	869.746	4100.864	633.476	--undefined--	--undefined--
965	0.965	0.00034	733.752	1438.576	1798.945	1059.741	4032.824	819.998
966	0.966	0.00017	993.135	772.503	1847.506	748.512	4014.591	769.902
967	0.967	0.00118	547.857	900.532	1679.477	663.682	4061.591	1098.996
968	0.968	0.00118	961.495	497.312	1890.535	459.315	4500.864	1028.044
969	0.969	0.00052	590.629	1198.879	2086.281	534.327	4457.055	862.706
970	0.970	0.00030	584.882	1530.394	2010.511	467.772	4489.866	550.288
971	0.971	0.00017	1115.753	1007.156	1996.813	765.220	--undefined--	--undefined--
972	0.972	0.00076	1463.240	725.643	3158.003	1286.271	--undefined--	--undefined--
973	0.973	0.00076	892.527	686.638	1847.770	552.835	4277.626	724.278
974	0.974	0.00043	1071.881	839.998	2059.603	1312.204	4066.186	782.408
975	0.975	0.00015	870.983	1064.515	2169.960	1101.917	3915.399	999.421
976	0.976	0.00011	449.459	1596.859	1700.256	488.128	4117.203	695.540
977	0.977	0.00071	1615.415	1631.420	3145.792	2204.314	--undefined--	--undefined--
978	0.978	0.00071	1257.953	846.917	1929.604	2035.270	4145.606	849.847
979	0.979	0.00024	981.656	3182.898	1256.057	1282.301	4013.592	854.383
980	0.980	0.00024	1121.392	649.889	2270.093	1748.936	3951.579	736.232
981	0.981	0.00007	1234.060	1011.201	3955.954	1201.344	--undefined--	--undefined--
982	0.982	0.00066	742.771	1276.549	2059.488	1074.444	3894.408	1034.910
983	0.983	0.00066	1495.076	676.967	4132.185	776.140	--undefined--	--undefined--
984	0.984	0.00018	766.074	1213.279	1740.005	1089.593	3988.840	672.092
985	0.985	0.00008	901.598	1452.351	1560.896	1032.527	3992.066	590.856
986	0.986	0.00015	1185.136	1040.998	3780.392	627.624	--undefined--	--undefined--
987	0.987	0.00045	724.378	1107.871	1880.231	1010.698	4039.675	1161.215
988	0.988	0.00045	1677.599	1018.274	4145.772	955.952	--undefined--	--undefined--
989	0.989	0.00012	904.078	1101.463	1663.677	954.429	3962.060	526.471
990	0.990	0.00007	739.822	1811.014	1584.770	1240.853	4045.639	1025.599
991	0.991	0.00020	1017.632	599.956	3674.136	1962.383	--undefined--	--undefined--
992	0.992	0.00029	781.035	1045.420	1918.627	845.248	4036.271	1148.515
993	0.993	0.00029	1156.443	2230.799	1801.446	1078.113	4110.131	1147.271
994	0.994	0.00014	1157.660	1156.243	1757.189	1052.752	3995.540	655.704
995	0.995	0.00005	868.895	1046.314	1902.382	857.375	3727.761	1056.759
996	0.996	0.00010	541.584	540.665	2328.381	2339.667	5288.747	1981.575
997	0.997	0.00023	793.681	902.602	1941.076	638.178	4016.009	1400.723
998	0.998	0.00023	1112.905	1643.334	1886.787	982.139	4194.173	1243.975
999	0.999	0.00009	1051.140	929.907	1914.606	682.303	4202.283	882.821
1000	1.000	0.00004	836.210	1097.889	1853.961	865.412	3649.412	1653.091
1001	1.001	0.00004	912.358	547.972	3786.219	1510.852	--undefined--	--undefined--
1002	1.002	0.00030	920.949	1384.388	1943.913	1131.009	4306.901	1740.857
1003	1.003	0.00030	927.579	1218.272	1777.172	750.188	4211.348	651.552
1004	1.004	0.00008	902.146	1218.996	1954.962	898.700	3939.611	972.356
1005	1.005	0.00005	810.349	715.212	1792.499	521.184	4006.244	985.053
1006	1.006	0.00005	509.008	554.087	2036.228	1224.230	3969.289	1091.222
1007	1.007	0.00031	1358.888	2168.635	1736.731	1148.411	4435.686	2240.424
1008	1.008	0.00031	888.388	1142.480	1766.162	760.513	4125.859	616.160
1009	1.009	0.00006	936.526	1660.003	1906.851	1392.995	3994.749	1226.948
1010	1.010	0.00005	910.111	533.450	1824.980	406.014	3922.676	631.354
1011	1.011	0.00005	633.729	867.494	1849.481	883.410	3510.067	888.958
1012	1.012	0.00025	1771.436	712.860	3769.463	949.405	--undefined--	--undefined--
1013	1.013	0.00025	1075.225	665.230	1996.701	810.371	3926.572	814.789
1014	1.014	0.00010	1237.322	1131.881	1801.209	1776.031	4166.779	1261.225
1015	1.015	0.00004	1357.082	750.483	2398.022	1108.489	3839.694	1406.489
1016	1.016	0.00003	675.915	1235.296	1806.530	1044.640	4013.204	1870.243
1017	1.017	0.00019	1584.485	332.820	3167.837	1110.600	--undefined--	--undefined--
1018	1.018	0.00019	1066.479	637.744	1993.165	634.459	4115.135	1767.539
1019	1.019	0.00011	963.063	801.481	1909.666	613.501	4123.792	1294.918
1020	1.020	0.00003	1449.180	924.296	2342.992	962.222	3774.468	1421.700
1021	1.021	0.00002	1106.467	979.634	1994.887	742.936	--undefined--	--undefined--
1022	1.022	0.00011	1040.586	836.203	1811.446	809.808	5077.970	1898.188
1023	1.023	0.00011	1179.477	707.275	2161.424	693.771	--undefined--	--undefined--
1024	1.024	0.00006	1482.478	742.776	2493.120	783.869	--undefined--	--undefined--
1025	1.025	0.00003	1951.958	455.903	3320.027	666.695	--undefined--	--undefined--
1026	1.026	0.000008	1730.248	929.859	2259.780	1660.430	--undefined--	--undefined--
1027	1.027	0.000008	1429.795	696.454	4609.411	910.381	--undefined--	--undefined--
1028	1.028	0.00011	809.551	1335.966	2028.491	1119.355	3656.240	1570.042
1029	1.029	0.00011	1805.669	680.387	3806.616	650.426	--undefined--	--undefined--
1030	1.030	0.00001	165.665	2414.648	1379.856	1168.350	3813.260	668.070
1031	1.031	0.000006	1118.321	1004.725	3623.783	682.605	--undefined--	--undefined--
1032	1.032	0.000006	1537.099	1161.173	3733.115	813.765	--undefined--	--undefined--
1033	1.033	0.00008	1144.878	841.572	2117.877	532.146	4449.960	1821.470
1034	1.034	0.00008	1064.089	642.943	1999.092	748.289	3910.205	1025.730
1035	1.035	0.00003	945.964	412.184	1826.933	394.774	3995.577	917.458
1036	1.036	0.00002	1515.319	823.188	2284.738	2479.261	4140.317	2023.165
1037	1.037	0.000008	410.149	1360.295	2051.036	1023.475	3318.314	1053.976
1038	1.038	0.00008	1210.915	528.514	2063.060	550.751	3485.776	530.974
1039	1.039	0.00008	1054.305	482.254	1935.569	456.348	--undefined--	--undefined--
1040	1.040	0.00002	1731.482	1209.017	2711.826	1591.966	--undefined--	--undefined--
1041	1.041	0.00001	1736.875	1548.387	2362.987	1116.056	--undefined--	--undefined--
1042	1.042	0.000005	1756.993	1027.994	--undefined--	--undefined--	--undefined--	--undefined--
1043	1.043	0.000002	1022.154	816.315	3293.481	2551.905	--undefined--	--undefined--
1044	1.044	0.00004	667.316	1180.433	1995.874	1276.060	3831.193	1025.131
1045	1.045	0.00004	1772.768	2113.299	3917.622	855.896	--undefined--	--undefined--
1046	1.046	0.000008	471.738	1778.109	1492.382	938.924	3967.191	729.030
1047	1.047	0.000002	355.672	1302.508	2562.025	1172.370	3858.597	729.754
1048	1.048	0.000003	487.417	892.995	1854.652	826.485	3700.758	509.975
1049	1.049	0.00002	1707.490	303.512	3541.159	861.633	--undefined--	--undefined--
1050	1.050	0.00002	1153.595	589.917	2094.764	933.484	3890.842	1027.957
1051	1.051	0.000009	834.292	1395.156	1566.473	952.149	4460.942	1313.042
1052	1.052	0.000008	875.786	1019.745	2027.029	786.840	3296.087	619.513
1053	1.053	0.000003	1881.166	631.457	3411.949	822.488	--undefined--	--undefined--
1054	1.054	0.00002	586.053	658.910	1755.861	537.141	4301.093	1110.102
1055	1.055	0.00002	1202.694	1274.911	2211.278	1289.154	--undefined--	--undefined--
1056	1.056	0.00002	461.629	1002.287	2026.870	772.877	3506.306	1177.653
1057	1.057	0.000006	1909.129	494.411	2537.663	3451.179	--undefined--	--undefined--
1058	1.058	0.000007	949.103	1111.763	1945.365	722.910	--undefined--	--undefined--
1059	1.059	0.000007	377.425	955.332	1199.201	889.044	5000.969	643.565
1060	1.060	0.00002	1920.759	547.455	4257.434	2270.584	--undefined--	--undefined--
1061	1.061	0.00002	1062.138	641.019	1936.603	783.926	3762.798	1541.444
1062	1.062	0.000006	1098.619	698.843	2075.687	1036.260	4225.922	1638.874
1063	1.063	0.000009	1255.552	603.110	2244.351	755.100	--undefined--	--undefined--
1064	1.064	0.000009	1455.543	616.976	2395.552	780.616	--undefined--	--undefined--
1065	1.065	0.00002	1132.770	387.677	1958.497	371.171	--undefined--	--undefined--
1066	1.066	0.00002	1169.884	779.825	2046.825	698.150	--undefined--	--undefined--
1067	1.067	0.000005	304.432	738.734	2303.027	619.061	3663.791	1188.573
1068	1.068	0.000006	1061.356	866.943	--undefined--	--undefined--	--undefined--	--undefined--
1069	1.069	0.000006	1110.415	660.440	2011.618	514.337	--undefined--	--undefined--
1070	1.070	0.000003	1033.159	738.688	--undefined--	--undefined--	--undefined--	--undefined--
1071	1.071	0.000009	277.008	2145.503	2903.885	2200.517	--undefined--	--undefined--
1072	1.072	0.000009	660.341	745.235	1722.105	521.974	4306.004	1447.483
1073	1.073	0.000005	733.972	971.614	3199.154	1800.592	--undefined--	--undefined--
1074	1.074	0.000006	743.501	1019.479	1789.330	698.749	--undefined--	--undefined--
1075	1.075	0.000006	920.494	1249.894	2117.944	1234.756	--undefined--	--undefined--
1076	1.076	0.00002	1507.856	439.010	4114.979	2401.886	--undefined--	--undefined--
1077	1.077	0.00002	1260.461	429.338	2166.333	516.818	--undefined--	--undefined--
1078	1.078	0.000005	949.089	568.596	1965.223	627.889	--undefined--	--undefined--
1079	1.079	0.000004	1079.898	1001.009	2043.269	886.693	--undefined--	--undefined--
1080	1.080	0.000004	163.286	833.030	1928.990	316.743	--undefined--	--undefined--
1081	1.081	0.00001	1085.797	1014.429	1976.316	766.363	--undefined--	--undefined--
1082	1.082	0.00001	1128.038	714.636	2020.177	545.517	--undefined--	--undefined--
1083	1.083	0.000003	322.098	846.580	2247.683	544.009	--undefined--	--undefined--
1084	1.084	0.000002	457.361	808.127	1378.947	957.699	--undefined--	--undefined--
1085	1.085	0.000002	454.795	457.100	1621.692	404.796	--undefined--	--undefined--
1086	1.086	0.000003	756.273	496.782	1737.917	410.525	5133.314	912.631
1087	1.087	0.000006	495.399	720.945	1572.257	771.019	--undefined--	--undefined--
1088	1.088	0.000006	664.090	935.005	1803.036	643.219	--undefined--	--undefined--
1089	1.089	0.000002	510.698	897.797	1639.254	814.225	--undefined--	--undefined--
1090	1.090	0.000001	1315.839	3205.900	2264.391	954.425	--undefined--	--undefined--
1091	1.091	0.000001	600.109	1162.870	1809.194	854.289	--undefined--	--undefined--
1092	1.092	0.000003	1020.041	1184.080	2053.582	1651.931	--undefined--	--undefined--
1093	1.093	0.000003	576.947	584.068	1596.649	425.809	5233.622	1130.845
1094	1.094	0.000001	515.920	739.740	1622.661	771.605	--undefined--	--undefined--
1095	1.095	0.000001	341.813	692.109	1931.095	781.861	4943.580	784.872
1096	1.096	0.000001	502.613	735.380	1978.619	632.816	5173.524	1028.122
1097	1.097	0.000002	808.109	1069.662	1920.698	973.939	--undefined--	--undefined--
1098	1.098	0.000002	175.454	1105.920	1674.147	487.020	4962.690	493.962
1099	1.099	0.0000008	258.837	1485.421	1125.435	839.509	4988.200	771.077
1100	1.100	0.0000009	416.766	624.136	1879.718	1745.708	5190.794	1406.339
1101	1.101	0.0000009	854.069	1263.031	2340.778	2589.263	--undefined--	--undefined--
1102	1.102	0.000001	890.335	675.157	4925.989	920.811	--undefined--	--undefined--
1103	1.103	0.000001	358.071	1539.961	1826.843	393.129	4963.049	974.221
1104	1.104	0.0000009	617.868	660.677	1754.090	1189.633	4989.610	623.410
1105	1.105	0.000002	375.097	865.998	1936.175	566.707	5268.865	1291.750
1106	1.106	0.000002	1839.817	656.204	3159.600	1933.052	--undefined--	--undefined--
1107	1.107	0.000001	448.415	550.789	1484.273	659.558	5218.618	1061.620
1108	1.108	0.000001	480.214	930.536	1730.408	515.253	5007.689	816.301
1109	1.109	0.0000005	1003.722	1014.981	5249.814	1168.447	--undefined--	--undefined--
1110	1.110	0.0000008	483.657	822.437	1892.357	932.394	--undefined--	--undefined--
1111	1.111	0.0000008	1729.023	493.071	4575.630	2941.874	--undefined--	--undefined--
1112	1.112	0.0000008	735.560	771.875	2947.919	1881.707	--undefined--	--undefined--
1113	1.113	0.0000008	605.822	1503.379	4211.781	917.443	--undefined--	--undefined--
1114	1.114	0.0000007	593.419	1200.417	1635.554	1097.637	--undefined--	--undefined--
1115	1.115	0.0000007	381.200	1222.110	1713.294	1185.684	5182.245	1299.071
1116	1.116	0.0000005	1650.034	1517.162	2774.171	1260.092	--undefined--	--undefined--
1117	1.117	0.0000006	788.075	768.349	3831.650	2375.810	--undefined--	--undefined--
